Points	Time	Resistance	Delta Voltage	Conductance	Power
0	0.000000E+0	5.975921E+0	5.975921E-3	167.338218E-3	5.975921E-6
1	26.000000E-3	5.991948E+0	5.991948E-3	166.890638E-3	5.991948E-6
2	53.000000E-3	6.006231E+0	6.006231E-3	166.493761E-3	6.006231E-6
3	79.000000E-3	6.019689E+0	6.019689E-3	166.121548E-3	6.019689E-6
4	105.000000E-3	6.033849E+0	6.033849E-3	165.731679E-3	6.033849E-6
5	132.000000E-3	6.050733E+0	6.050733E-3	165.269235E-3	6.050733E-6
6	158.000000E-3	6.069298E+0	6.069298E-3	164.763704E-3	6.069298E-6
7	185.000000E-3	6.084988E+0	6.084988E-3	164.338852E-3	6.084988E-6
8	211.000000E-3	6.094164E+0	6.094164E-3	164.091410E-3	6.094164E-6
9	238.000000E-3	6.099883E+0	6.099883E-3	163.937558E-3	6.099883E-6
10	264.000000E-3	6.105786E+0	6.105786E-3	163.779073E-3	6.105786E-6
11	291.000000E-3	6.116614E+0	6.116614E-3	163.489153E-3	6.116614E-6
12	317.000000E-3	6.133864E+0	6.133864E-3	163.029381E-3	6.133864E-6
13	343.000000E-3	6.150838E+0	6.150838E-3	162.579461E-3	6.150838E-6
14	370.000000E-3	6.166651E+0	6.166651E-3	162.162564E-3	6.166651E-6
15	396.000000E-3	6.183137E+0	6.183137E-3	161.730210E-3	6.183137E-6
16	422.000000E-3	6.195738E+0	6.195738E-3	161.401273E-3	6.195738E-6
17	449.000000E-3	6.203078E+0	6.203078E-3	161.210284E-3	6.203078E-6
18	475.000000E-3	6.209715E+0	6.209715E-3	161.037979E-3	6.209715E-6
19	502.000000E-3	6.218707E+0	6.218707E-3	160.805127E-3	6.218707E-6
20	528.000000E-3	6.229443E+0	6.229443E-3	160.527996E-3	6.229443E-6
21	554.000000E-3	6.242747E+0	6.242747E-3	160.185882E-3	6.242747E-6
22	581.000000E-3	6.258132E+0	6.258132E-3	159.792093E-3	6.258132E-6
23	607.000000E-3	6.274098E+0	6.274098E-3	159.385471E-3	6.274098E-6
24	633.000000E-3	6.291684E+0	6.291684E-3	158.939954E-3	6.291684E-6
25	659.000000E-3	6.312482E+0	6.312482E-3	158.416292E-3	6.312482E-6
26	686.000000E-3	6.323584E+0	6.323584E-3	158.138161E-3	6.323584E-6
27	712.000000E-3	6.334167E+0	6.334167E-3	157.873956E-3	6.334167E-6
28	739.000000E-3	6.335696E+0	6.335696E-3	157.835851E-3	6.335696E-6
29	765.000000E-3	6.330527E+0	6.330527E-3	157.964723E-3	6.330527E-6
30	791.000000E-3	6.325175E+0	6.325175E-3	158.098391E-3	6.325175E-6
31	817.000000E-3	6.320189E+0	6.320189E-3	158.223111E-3	6.320189E-6
32	844.000000E-3	6.313950E+0	6.313950E-3	158.379466E-3	6.313950E-6
33	870.000000E-3	6.307558E+0	6.307558E-3	158.539969E-3	6.307558E-6
34	897.000000E-3	6.301471E+0	6.301471E-3	158.693104E-3	6.301471E-6
35	923.000000E-3	6.300064E+0	6.300064E-3	158.728551E-3	6.300064E-6
36	949.000000E-3	6.303459E+0	6.303459E-3	158.643058E-3	6.303459E-6
37	976.000000E-3	6.304376E+0	6.304376E-3	158.619973E-3	6.304376E-6
38	1.002000E+0	6.301685E+0	6.301685E-3	158.687722E-3	6.301685E-6
39	1.029000E+0	6.298932E+0	6.298932E-3	158.757066E-3	6.298932E-6
40	1.055000E+0	6.295904E+0	6.295904E-3	158.833424E-3	6.295904E-6
41	1.081000E+0	6.290766E+0	6.290766E-3	158.963155E-3	6.290766E-6
42	1.108000E+0	6.285230E+0	6.285230E-3	159.103175E-3	6.285230E-6
43	1.140000E+0	6.279449E+0	6.279449E-3	159.249642E-3	6.279449E-6
44	1.172000E+0	6.273913E+0	6.273913E-3	159.390155E-3	6.273913E-6
45	1.205000E+0	6.269753E+0	6.269753E-3	159.495905E-3	6.269753E-6
46	1.233000E+0	6.263789E+0	6.263789E-3	159.647772E-3	6.263789E-6
47	1.260000E+0	6.251922E+0	6.251922E-3	159.950815E-3	6.251922E-6
48	1.286000E+0	6.232164E+0	6.232164E-3	160.457912E-3	6.232164E-6
49	1.313000E+0	6.208430E+0	6.208430E-3	161.071328E-3	6.208430E-6
50	1.339000E+0	6.188365E+0	6.188365E-3	161.593567E-3	6.188365E-6
51	1.365000E+0	6.173654E+0	6.173654E-3	161.978640E-3	6.173654E-6
52	1.392000E+0	6.160624E+0	6.160624E-3	162.321211E-3	6.160624E-6
53	1.418000E+0	6.148910E+0	6.148910E-3	162.630446E-3	6.148910E-6
54	1.444000E+0	6.136737E+0	6.136737E-3	162.953053E-3	6.136737E-6
55	1.470000E+0	6.121903E+0	6.121903E-3	163.347907E-3	6.121903E-6
56	1.497000E+0	6.105815E+0	6.105815E-3	163.778298E-3	6.105815E-6
57	1.523000E+0	6.092908E+0	6.092908E-3	164.125246E-3	6.092908E-6
58	1.550000E+0	6.086882E+0	6.086882E-3	164.287720E-3	6.086882E-6
59	1.576000E+0	6.084282E+0	6.084282E-3	164.357919E-3	6.084282E-6
60	1.602000E+0	6.080979E+0	6.080979E-3	164.447192E-3	6.080979E-6
61	1.628000E+0	6.073027E+0	6.073027E-3	164.662534E-3	6.073027E-6
62	1.655000E+0	6.058377E+0	6.058377E-3	165.060715E-3	6.058377E-6
63	1.681000E+0	6.042105E+0	6.042105E-3	165.505230E-3	6.042105E-6
64	1.708000E+0	6.025834E+0	6.025834E-3	165.952145E-3	6.025834E-6
65	1.734000E+0	6.009501E+0	6.009501E-3	166.403169E-3	6.009501E-6
66	1.760000E+0	5.999438E+0	5.999438E-3	166.682279E-3	5.999438E-6
67	1.787000E+0	5.996380E+0	5.996380E-3	166.767296E-3	5.996380E-6
68	1.813000E+0	5.995523E+0	5.995523E-3	166.791116E-3	5.995523E-6
69	1.839000E+0	5.995003E+0	5.995003E-3	166.805587E-3	5.995003E-6
70	1.866000E+0	5.993657E+0	5.993657E-3	166.843040E-3	5.993657E-6
71	1.892000E+0	5.989131E+0	5.989131E-3	166.969143E-3	5.989131E-6
72	1.919000E+0	5.981668E+0	5.981668E-3	167.177452E-3	5.981668E-6
73	1.945000E+0	5.971514E+0	5.971514E-3	167.461728E-3	5.971514E-6
74	1.971000E+0	5.959157E+0	5.959157E-3	167.808973E-3	5.959157E-6
75	1.997000E+0	5.949309E+0	5.949309E-3	168.086758E-3	5.949309E-6
76	2.024000E+0	5.942457E+0	5.942457E-3	168.280551E-3	5.942457E-6
77	2.050000E+0	5.937625E+0	5.937625E-3	168.417515E-3	5.937625E-6
78	2.077000E+0	5.938053E+0	5.938053E-3	168.405364E-3	5.938053E-6
79	2.103000E+0	5.949003E+0	5.949003E-3	168.095402E-3	5.949003E-6
80	2.129000E+0	5.963255E+0	5.963255E-3	167.693645E-3	5.963255E-6
81	2.155000E+0	5.972370E+0	5.972370E-3	167.437729E-3	5.972370E-6
82	2.182000E+0	5.979833E+0	5.979833E-3	167.228758E-3	5.979833E-6
83	2.208000E+0	5.989070E+0	5.989070E-3	166.970844E-3	5.989070E-6
84	2.234000E+0	6.004882E+0	6.004882E-3	166.531164E-3	6.004882E-6
85	2.261000E+0	6.021551E+0	6.021551E-3	166.070161E-3	6.021551E-6
86	2.287000E+0	6.034275E+0	6.034275E-3	165.720002E-3	6.034275E-6
87	2.314000E+0	6.051158E+0	6.051158E-3	165.257623E-3	6.051158E-6
88	2.340000E+0	6.078012E+0	6.078012E-3	164.527485E-3	6.078012E-6
89	2.366000E+0	6.112390E+0	6.112390E-3	163.602121E-3	6.112390E-6
90	2.392000E+0	6.150163E+0	6.150163E-3	162.597310E-3	6.150163E-6
91	2.419000E+0	6.197112E+0	6.197112E-3	161.365484E-3	6.197112E-6
92	2.445000E+0	6.253420E+0	6.253420E-3	159.912498E-3	6.253420E-6
93	2.472000E+0	6.311624E+0	6.311624E-3	158.437821E-3	6.311624E-6
94	2.498000E+0	6.377046E+0	6.377046E-3	156.812406E-3	6.377046E-6
95	2.524000E+0	6.460667E+0	6.460667E-3	154.782777E-3	6.460667E-6
96	2.550000E+0	6.563465E+0	6.563465E-3	152.358546E-3	6.563465E-6
97	2.577000E+0	6.667150E+0	6.667150E-3	149.989122E-3	6.667150E-6
98	2.603000E+0	6.753126E+0	6.753126E-3	148.079567E-3	6.753126E-6
99	2.630000E+0	6.825889E+0	6.825889E-3	146.501064E-3	6.825889E-6
100	2.656000E+0	6.894003E+0	6.894003E-3	145.053614E-3	6.894003E-6
101	2.682000E+0	6.971323E+0	6.971323E-3	143.444797E-3	6.971323E-6
102	2.709000E+0	7.052589E+0	7.052589E-3	141.791906E-3	7.052589E-6
103	2.735000E+0	7.107153E+0	7.107153E-3	140.703315E-3	7.107153E-6
104	2.761000E+0	7.140277E+0	7.140277E-3	140.050581E-3	7.140277E-6
105	2.787000E+0	7.169547E+0	7.169547E-3	139.478817E-3	7.169547E-6
106	2.814000E+0	7.197472E+0	7.197472E-3	138.937666E-3	7.197472E-6
107	2.840000E+0	7.230902E+0	7.230902E-3	138.295331E-3	7.230902E-6
108	2.867000E+0	7.280695E+0	7.280695E-3	137.349520E-3	7.280695E-6
109	2.893000E+0	7.339420E+0	7.339420E-3	136.250552E-3	7.339420E-6
110	2.919000E+0	7.382147E+0	7.382147E-3	135.461937E-3	7.382147E-6
111	2.945000E+0	7.403986E+0	7.403986E-3	135.062391E-3	7.403986E-6
112	2.972000E+0	7.413620E+0	7.413620E-3	134.886868E-3	7.413620E-6
113	2.998000E+0	7.419217E+0	7.419217E-3	134.785106E-3	7.419217E-6
114	3.025000E+0	7.426680E+0	7.426680E-3	134.649667E-3	7.426680E-6
115	3.051000E+0	7.435764E+0	7.435764E-3	134.485177E-3	7.435764E-6
116	3.077000E+0	7.447815E+0	7.447815E-3	134.267575E-3	7.447815E-6
117	3.104000E+0	7.464178E+0	7.464178E-3	133.973227E-3	7.464178E-6
118	3.130000E+0	7.480908E+0	7.480908E-3	133.673609E-3	7.480908E-6
119	3.156000E+0	7.495253E+0	7.495253E-3	133.417780E-3	7.495253E-6
120	3.183000E+0	7.503878E+0	7.503878E-3	133.264429E-3	7.503878E-6
121	3.209000E+0	7.504428E+0	7.504428E-3	133.254655E-3	7.504428E-6
122	3.236000E+0	7.503235E+0	7.503235E-3	133.275843E-3	7.503235E-6
123	3.262000E+0	7.505040E+0	7.505040E-3	133.243791E-3	7.505040E-6
124	3.288000E+0	7.507854E+0	7.507854E-3	133.193858E-3	7.507854E-6
125	3.314000E+0	7.509353E+0	7.509353E-3	133.167271E-3	7.509353E-6
126	3.341000E+0	7.514063E+0	7.514063E-3	133.083796E-3	7.514063E-6
127	3.367000E+0	7.522015E+0	7.522015E-3	132.943103E-3	7.522015E-6
128	3.394000E+0	7.525104E+0	7.525104E-3	132.888527E-3	7.525104E-6
129	3.420000E+0	7.521954E+0	7.521954E-3	132.944181E-3	7.521954E-6
130	3.446000E+0	7.518498E+0	7.518498E-3	133.005293E-3	7.518498E-6
131	3.472000E+0	7.520057E+0	7.520057E-3	132.977711E-3	7.520057E-6
132	3.499000E+0	7.526358E+0	7.526358E-3	132.866386E-3	7.526358E-6
133	3.525000E+0	7.534066E+0	7.534066E-3	132.730458E-3	7.534066E-6
134	3.552000E+0	7.536115E+0	7.536115E-3	132.694372E-3	7.536115E-6
135	3.578000E+0	7.530120E+0	7.530120E-3	132.800005E-3	7.530120E-6
136	3.604000E+0	7.518711E+0	7.518711E-3	133.001512E-3	7.518711E-6
137	3.631000E+0	7.500085E+0	7.500085E-3	133.331821E-3	7.500085E-6
138	3.657000E+0	7.475525E+0	7.475525E-3	133.769875E-3	7.475525E-6
139	3.690000E+0	7.448609E+0	7.448609E-3	134.253246E-3	7.448609E-6
140	3.722000E+0	7.417259E+0	7.417259E-3	134.820688E-3	7.417259E-6
141	3.754000E+0	7.377743E+0	7.377743E-3	135.542811E-3	7.377743E-6
142	3.787000E+0	7.335045E+0	7.335045E-3	136.331808E-3	7.335045E-6
143	3.819000E+0	7.303512E+0	7.303512E-3	136.920435E-3	7.303512E-6
144	3.851000E+0	7.277239E+0	7.277239E-3	137.414760E-3	7.277239E-6
145	3.883000E+0	7.228730E+0	7.228730E-3	138.336882E-3	7.228730E-6
146	3.916000E+0	7.157649E+0	7.157649E-3	139.710671E-3	7.157649E-6
147	3.948000E+0	7.091034E+0	7.091034E-3	141.023153E-3	7.091034E-6
148	3.978000E+0	7.044820E+0	7.044820E-3	141.948275E-3	7.044820E-6
149	4.005000E+0	7.020687E+0	7.020687E-3	142.436199E-3	7.020687E-6
150	4.031000E+0	7.021055E+0	7.021055E-3	142.428745E-3	7.021055E-6
151	4.058000E+0	7.062957E+0	7.062957E-3	141.583765E-3	7.062957E-6
152	4.084000E+0	7.173065E+0	7.173065E-3	139.410427E-3	7.173065E-6
153	4.110000E+0	7.323821E+0	7.323821E-3	136.540756E-3	7.323821E-6
154	4.136000E+0	7.440045E+0	7.440045E-3	134.407781E-3	7.440045E-6
155	4.163000E+0	7.511218E+0	7.511218E-3	133.134199E-3	7.511218E-6
156	4.189000E+0	7.577405E+0	7.577405E-3	131.971304E-3	7.577405E-6
157	4.216000E+0	7.638515E+0	7.638515E-3	130.915499E-3	7.638515E-6
158	4.242000E+0	7.664390E+0	7.664390E-3	130.473529E-3	7.664390E-6
159	4.268000E+0	7.661026E+0	7.661026E-3	130.530828E-3	7.661026E-6
160	4.294000E+0	7.660598E+0	7.660598E-3	130.538120E-3	7.660598E-6
161	4.321000E+0	7.672618E+0	7.672618E-3	130.333615E-3	7.672618E-6
162	4.347000E+0	7.698065E+0	7.698065E-3	129.902780E-3	7.698065E-6
163	4.374000E+0	7.729353E+0	7.729353E-3	129.376929E-3	7.729353E-6
164	4.400000E+0	7.753761E+0	7.753761E-3	128.969678E-3	7.753761E-6
165	4.426000E+0	7.793338E+0	7.793339E-3	128.314714E-3	7.793339E-6
166	4.453000E+0	7.861207E+0	7.861207E-3	127.206925E-3	7.861207E-6
167	4.479000E+0	7.937274E+0	7.937274E-3	125.987840E-3	7.937274E-6
168	4.505000E+0	8.017682E+0	8.017682E-3	124.724321E-3	8.017682E-6
169	4.531000E+0	8.120450E+0	8.120450E-3	123.145882E-3	8.120450E-6
170	4.558000E+0	8.245575E+0	8.245575E-3	121.277166E-3	8.245575E-6
171	4.584000E+0	8.347975E+0	8.347975E-3	119.789529E-3	8.347975E-6
172	4.611000E+0	8.412542E+0	8.412542E-3	118.870137E-3	8.412542E-6
173	4.637000E+0	8.465454E+0	8.465454E-3	118.127156E-3	8.465454E-6
174	4.663000E+0	8.519927E+0	8.519927E-3	117.371897E-3	8.519927E-6
175	4.689000E+0	8.580181E+0	8.580181E-3	116.547660E-3	8.580181E-6
176	4.716000E+0	8.636244E+0	8.636244E-3	115.791083E-3	8.636244E-6
177	4.742000E+0	8.672457E+0	8.672457E-3	115.307574E-3	8.672457E-6
178	4.769000E+0	8.697079E+0	8.697079E-3	114.981139E-3	8.697079E-6
179	4.795000E+0	8.726716E+0	8.726716E-3	114.590643E-3	8.726716E-6
180	4.821000E+0	8.768802E+0	8.768802E-3	114.040669E-3	8.768802E-6
181	4.848000E+0	8.828137E+0	8.828137E-3	113.274181E-3	8.828137E-6
182	4.874000E+0	8.900686E+0	8.900686E-3	112.350889E-3	8.900686E-6
183	4.900000E+0	8.986693E+0	8.986693E-3	111.275640E-3	8.986693E-6
184	4.927000E+0	9.085055E+0	9.085055E-3	110.070875E-3	9.085055E-6
185	4.953000E+0	9.185988E+0	9.185988E-3	108.861459E-3	9.185988E-6
186	4.980000E+0	9.279151E+0	9.279151E-3	107.768475E-3	9.279151E-6
187	5.006000E+0	9.350477E+0	9.350477E-3	106.946418E-3	9.350477E-6
188	5.032000E+0	9.399780E+0	9.399780E-3	106.385468E-3	9.399780E-6
189	5.058000E+0	9.444099E+0	9.444099E-3	105.886227E-3	9.444099E-6
190	5.085000E+0	9.490008E+0	9.490008E-3	105.373994E-3	9.490008E-6
191	5.111000E+0	9.537843E+0	9.537843E-3	104.845508E-3	9.537843E-6
192	5.138000E+0	9.585985E+0	9.585985E-3	104.318962E-3	9.585985E-6
193	5.164000E+0	9.615592E+0	9.615592E-3	103.997760E-3	9.615592E-6
194	5.190000E+0	9.621954E+0	9.621954E-3	103.928998E-3	9.621954E-6
195	5.216000E+0	9.625899E+0	9.625899E-3	103.886404E-3	9.625899E-6
196	5.243000E+0	9.641252E+0	9.641252E-3	103.720964E-3	9.641252E-6
197	5.269000E+0	9.672878E+0	9.672878E-3	103.381844E-3	9.672878E-6
198	5.296000E+0	9.709764E+0	9.709764E-3	102.989112E-3	9.709764E-6
199	5.322000E+0	9.730134E+0	9.730134E-3	102.773506E-3	9.730134E-6
200	5.348000E+0	9.732459E+0	9.732459E-3	102.748959E-3	9.732459E-6
201	5.375000E+0	9.687834E+0	9.687834E-3	103.222243E-3	9.687834E-6
202	5.401000E+0	9.564972E+0	9.564972E-3	104.548131E-3	9.564972E-6
203	5.427000E+0	9.422352E+0	9.422352E-3	106.130618E-3	9.422352E-6
204	5.453000E+0	9.338150E+0	9.338150E-3	107.087595E-3	9.338150E-6
205	5.480000E+0	9.307167E+0	9.307167E-3	107.444086E-3	9.307167E-6
206	5.506000E+0	9.272819E+0	9.272819E-3	107.842066E-3	9.272819E-6
207	5.533000E+0	9.222507E+0	9.222507E-3	108.430392E-3	9.222507E-6
208	5.559000E+0	9.180941E+0	9.180941E-3	108.921301E-3	9.180941E-6
209	5.585000E+0	9.156013E+0	9.156013E-3	109.217845E-3	9.156013E-6
210	5.611000E+0	9.145920E+0	9.145920E-3	109.338370E-3	9.145920E-6
211	5.638000E+0	9.143076E+0	9.143076E-3	109.372383E-3	9.143076E-6
212	5.664000E+0	9.133533E+0	9.133533E-3	109.486662E-3	9.133533E-6
213	5.691000E+0	9.118057E+0	9.118057E-3	109.672490E-3	9.118057E-6
214	5.717000E+0	9.111450E+0	9.111450E-3	109.752015E-3	9.111450E-6
215	5.743000E+0	9.096892E+0	9.096892E-3	109.927659E-3	9.096892E-6
216	5.770000E+0	9.052970E+0	9.052970E-3	110.460981E-3	9.052970E-6
217	5.796000E+0	8.992136E+0	8.992136E-3	111.208277E-3	8.992136E-6
218	5.822000E+0	8.926255E+0	8.926255E-3	112.029069E-3	8.926255E-6
219	5.849000E+0	8.843918E+0	8.843918E-3	113.072053E-3	8.843918E-6
220	5.875000E+0	8.738032E+0	8.738032E-3	114.442250E-3	8.738032E-6
221	5.902000E+0	8.652025E+0	8.652025E-3	115.579880E-3	8.652025E-6
222	5.928000E+0	8.605658E+0	8.605658E-3	116.202618E-3	8.605658E-6
223	5.954000E+0	8.571157E+0	8.571157E-3	116.670360E-3	8.571157E-6
224	5.980000E+0	8.534179E+0	8.534179E-3	117.175887E-3	8.534179E-6
225	6.007000E+0	8.484876E+0	8.484876E-3	117.856764E-3	8.484876E-6
226	6.033000E+0	8.424775E+0	8.424775E-3	118.697536E-3	8.424775E-6
227	6.060000E+0	8.376327E+0	8.376327E-3	119.384064E-3	8.376327E-6
228	6.086000E+0	8.341399E+0	8.341399E-3	119.883966E-3	8.341399E-6
229	6.112000E+0	8.304512E+0	8.304512E-3	120.416466E-3	8.304512E-6
230	6.138000E+0	8.262305E+0	8.262305E-3	121.031607E-3	8.262305E-6
231	6.165000E+0	8.210218E+0	8.210218E-3	121.799452E-3	8.210218E-6
232	6.191000E+0	8.152655E+0	8.152655E-3	122.659423E-3	8.152655E-6
233	6.218000E+0	8.089466E+0	8.089466E-3	123.617554E-3	8.089466E-6
234	6.244000E+0	8.010402E+0	8.010402E-3	124.837675E-3	8.010402E-6
235	6.270000E+0	7.924059E+0	7.924059E-3	126.197943E-3	7.924059E-6
236	6.297000E+0	7.847932E+0	7.847932E-3	127.422100E-3	7.847932E-6
237	6.323000E+0	7.804561E+0	7.804561E-3	128.130198E-3	7.804561E-6
238	6.350000E+0	7.796242E+0	7.796242E-3	128.266920E-3	7.796242E-6
239	6.376000E+0	7.798566E+0	7.798566E-3	128.228695E-3	7.798566E-6
240	6.402000E+0	7.795110E+0	7.795110E-3	128.285548E-3	7.795110E-6
241	6.435000E+0	7.784711E+0	7.784711E-3	128.456917E-3	7.784711E-6
242	6.467000E+0	7.789941E+0	7.789941E-3	128.370669E-3	7.789941E-6
243	6.499000E+0	7.834474E+0	7.834474E-3	127.640994E-3	7.834474E-6
244	6.532000E+0	7.890629E+0	7.890629E-3	126.732615E-3	7.890629E-6
245	6.564000E+0	7.923570E+0	7.923570E-3	126.205746E-3	7.923570E-6
246	6.596000E+0	7.929350E+0	7.929350E-3	126.113738E-3	7.929350E-6
247	6.629000E+0	7.904148E+0	7.904148E-3	126.515854E-3	7.904148E-6
248	6.661000E+0	7.868852E+0	7.868852E-3	127.083348E-3	7.868852E-6
249	6.694000E+0	7.837654E+0	7.837654E-3	127.589198E-3	7.837654E-6
250	6.726000E+0	7.791684E+0	7.791684E-3	128.341953E-3	7.791684E-6
251	6.754000E+0	7.735101E+0	7.735101E-3	129.280793E-3	7.735101E-6
252	6.780000E+0	7.692985E+0	7.692985E-3	129.988558E-3	7.692985E-6
253	6.807000E+0	7.665336E+0	7.665336E-3	130.457431E-3	7.665336E-6
254	6.833000E+0	7.634107E+0	7.634107E-3	130.991082E-3	7.634107E-6
255	6.860000E+0	7.593980E+0	7.593980E-3	131.683261E-3	7.593980E-6
256	6.886000E+0	7.554769E+0	7.554769E-3	132.366728E-3	7.554769E-6
257	6.912000E+0	7.524642E+0	7.524642E-3	132.896685E-3	7.524642E-6
258	6.938000E+0	7.501642E+0	7.501642E-3	133.304153E-3	7.501642E-6
259	6.965000E+0	7.481639E+0	7.481639E-3	133.660556E-3	7.481639E-6
260	6.991000E+0	7.459342E+0	7.459342E-3	134.060082E-3	7.459342E-6
261	7.018000E+0	7.435302E+0	7.435302E-3	134.493532E-3	7.435302E-6
262	7.044000E+0	7.416797E+0	7.416797E-3	134.829085E-3	7.416797E-6
263	7.070000E+0	7.410191E+0	7.410191E-3	134.949288E-3	7.410191E-6
264	7.097000E+0	7.402483E+0	7.402483E-3	135.089800E-3	7.402483E-6
265	7.123000E+0	7.376455E+0	7.376455E-3	135.566479E-3	7.376455E-6
266	7.149000E+0	7.342902E+0	7.342902E-3	136.185930E-3	7.342902E-6
267	7.176000E+0	7.313693E+0	7.313693E-3	136.729822E-3	7.313693E-6
268	7.202000E+0	7.284392E+0	7.284392E-3	137.279814E-3	7.284392E-6
269	7.229000E+0	7.254052E+0	7.254052E-3	137.853998E-3	7.254052E-6
270	7.255000E+0	7.236373E+0	7.236373E-3	138.190773E-3	7.236373E-6
271	7.281000E+0	7.233834E+0	7.233834E-3	138.239273E-3	7.233834E-6
272	7.307000E+0	7.236373E+0	7.236373E-3	138.190773E-3	7.236373E-6
273	7.334000E+0	7.239982E+0	7.239982E-3	138.121890E-3	7.239982E-6
274	7.360000E+0	7.239034E+0	7.239034E-3	138.139980E-3	7.239034E-6
275	7.387000E+0	7.237351E+0	7.237352E-3	138.172092E-3	7.237352E-6
276	7.413000E+0	7.240563E+0	7.240563E-3	138.110804E-3	7.240563E-6
277	7.439000E+0	7.244141E+0	7.244141E-3	138.042586E-3	7.244141E-6
278	7.465000E+0	7.246252E+0	7.246252E-3	138.002383E-3	7.246252E-6
279	7.492000E+0	7.248270E+0	7.248270E-3	137.963949E-3	7.248270E-6
280	7.518000E+0	7.250626E+0	7.250626E-3	137.919133E-3	7.250626E-6
281	7.545000E+0	7.258058E+0	7.258058E-3	137.777909E-3	7.258058E-6
282	7.571000E+0	7.289286E+0	7.289286E-3	137.187652E-3	7.289286E-6
283	7.597000E+0	7.331769E+0	7.331769E-3	136.392732E-3	7.331769E-6
284	7.624000E+0	7.348683E+0	7.348683E-3	136.078810E-3	7.348683E-6
285	7.650000E+0	7.350120E+0	7.350120E-3	136.052196E-3	7.350120E-6
286	7.676000E+0	7.375414E+0	7.375414E-3	135.585600E-3	7.375414E-6
287	7.702000E+0	7.416766E+0	7.416766E-3	134.829652E-3	7.416766E-6
288	7.729000E+0	7.423709E+0	7.423709E-3	134.703553E-3	7.423709E-6
289	7.755000E+0	7.403125E+0	7.403125E-3	135.078091E-3	7.403125E-6
290	7.782000E+0	7.408141E+0	7.408141E-3	134.986629E-3	7.408141E-6
291	7.808000E+0	7.447535E+0	7.447535E-3	134.272612E-3	7.447535E-6
292	7.834000E+0	7.536937E+0	7.536937E-3	132.679893E-3	7.536937E-6
293	7.860000E+0	7.650471E+0	7.650471E-3	130.710909E-3	7.650471E-6
294	7.887000E+0	7.718463E+0	7.718463E-3	129.559482E-3	7.718462E-6
295	7.913000E+0	7.793091E+0	7.793091E-3	128.318785E-3	7.793091E-6
296	7.940000E+0	7.926933E+0	7.926933E-3	126.152188E-3	7.926933E-6
297	7.966000E+0	8.089710E+0	8.089710E-3	123.613825E-3	8.089710E-6
298	7.992000E+0	8.204405E+0	8.204405E-3	121.885740E-3	8.204405E-6
299	8.019000E+0	8.224286E+0	8.224286E-3	121.591100E-3	8.224286E-6
300	8.045000E+0	8.208840E+0	8.208840E-3	121.819890E-3	8.208840E-6
301	8.071000E+0	8.211501E+0	8.211501E-3	121.780416E-3	8.211501E-6
302	8.098000E+0	8.219331E+0	8.219331E-3	121.664409E-3	8.219331E-6
303	8.124000E+0	8.206546E+0	8.206546E-3	121.853940E-3	8.206546E-6
304	8.151000E+0	8.196728E+0	8.196728E-3	121.999896E-3	8.196728E-6
305	8.177000E+0	8.217801E+0	8.217801E-3	121.687050E-3	8.217801E-6
306	8.203000E+0	8.252730E+0	8.252730E-3	121.172029E-3	8.252730E-6
307	8.229000E+0	8.287750E+0	8.287750E-3	120.660008E-3	8.287750E-6
308	8.256000E+0	8.315369E+0	8.315369E-3	120.259252E-3	8.315369E-6
309	8.282000E+0	8.323076E+0	8.323076E-3	120.147885E-3	8.323076E-6
310	8.309000E+0	8.320477E+0	8.320477E-3	120.185419E-3	8.320477E-6
311	8.335000E+0	8.317693E+0	8.317693E-3	120.225642E-3	8.317693E-6
312	8.361000E+0	8.314543E+0	8.314543E-3	120.271187E-3	8.314543E-6
313	8.387000E+0	8.306774E+0	8.306774E-3	120.383673E-3	8.306774E-6
314	8.414000E+0	8.295366E+0	8.295366E-3	120.549238E-3	8.295366E-6
315	8.440000E+0	8.290716E+0	8.290716E-3	120.616838E-3	8.290716E-6
316	8.466000E+0	8.289861E+0	8.289861E-3	120.629291E-3	8.289861E-6
317	8.493000E+0	8.287444E+0	8.287444E-3	120.664469E-3	8.287444E-6
318	8.519000E+0	8.282703E+0	8.282703E-3	120.733528E-3	8.282703E-6
319	8.546000E+0	8.271478E+0	8.271478E-3	120.897376E-3	8.271478E-6
320	8.572000E+0	8.252913E+0	8.252913E-3	121.169336E-3	8.252913E-6
321	8.598000E+0	8.229516E+0	8.229516E-3	121.513836E-3	8.229516E-6
322	8.624000E+0	8.200765E+0	8.200765E-3	121.939848E-3	8.200765E-6
323	8.651000E+0	8.170485E+0	8.170485E-3	122.391762E-3	8.170485E-6
324	8.677000E+0	8.145466E+0	8.145466E-3	122.767692E-3	8.145466E-6
325	8.704000E+0	8.122435E+0	8.122435E-3	123.115792E-3	8.122435E-6
326	8.730000E+0	8.100230E+0	8.100230E-3	123.453281E-3	8.100230E-6
327	8.756000E+0	8.081603E+0	8.081603E-3	123.737830E-3	8.081603E-6
328	8.782000E+0	8.066770E+0	8.066770E-3	123.965359E-3	8.066770E-6
329	8.809000E+0	8.054046E+0	8.054046E-3	124.161199E-3	8.054046E-6
330	8.835000E+0	8.037254E+0	8.037254E-3	124.420601E-3	8.037254E-6
331	8.862000E+0	8.008321E+0	8.008321E-3	124.870122E-3	8.008321E-6
332	8.888000E+0	7.943877E+0	7.943877E-3	125.883117E-3	7.943877E-6
333	8.914000E+0	7.857044E+0	7.857044E-3	127.274325E-3	7.857044E-6
334	8.941000E+0	7.800277E+0	7.800277E-3	128.200570E-3	7.800277E-6
335	8.967000E+0	7.768407E+0	7.768407E-3	128.726512E-3	7.768407E-6
336	8.994000E+0	7.714454E+0	7.714454E-3	129.626801E-3	7.714454E-6
337	9.020000E+0	7.636583E+0	7.636583E-3	130.948612E-3	7.636583E-6
338	9.046000E+0	7.578104E+0	7.578104E-3	131.959132E-3	7.578104E-6
339	9.073000E+0	7.536171E+0	7.536171E-3	132.693380E-3	7.536171E-6
340	9.099000E+0	7.474022E+0	7.474022E-3	133.796778E-3	7.474022E-6
341	9.125000E+0	7.384711E+0	7.384711E-3	135.414906E-3	7.384711E-6
342	9.152000E+0	7.224413E+0	7.224413E-3	138.419558E-3	7.224413E-6
343	9.184000E+0	7.005970E+0	7.005970E-3	142.735401E-3	7.005970E-6
344	9.217000E+0	6.832948E+0	6.832948E-3	146.349717E-3	6.832948E-6
345	9.249000E+0	6.682896E+0	6.682896E-3	149.635736E-3	6.682896E-6
346	9.281000E+0	6.494244E+0	6.494244E-3	153.982509E-3	6.494244E-6
347	9.313000E+0	6.286629E+0	6.286629E-3	159.067749E-3	6.286629E-6
348	9.346000E+0	6.127921E+0	6.127921E-3	163.187472E-3	6.127921E-6
349	9.378000E+0	6.066353E+0	6.066353E-3	164.843699E-3	6.066353E-6
350	9.411000E+0	6.052436E+0	6.052436E-3	165.222722E-3	6.052436E-6
351	9.443000E+0	6.027540E+0	6.027540E-3	165.905169E-3	6.027540E-6
352	9.476000E+0	5.989552E+0	5.989552E-3	166.957382E-3	5.989552E-6
353	9.503000E+0	5.964136E+0	5.964136E-3	167.668886E-3	5.964136E-6
354	9.530000E+0	5.936945E+0	5.936945E-3	168.436788E-3	5.936945E-6
355	9.556000E+0	5.882840E+0	5.882840E-3	169.985935E-3	5.882840E-6
356	9.583000E+0	5.823810E+0	5.823810E-3	171.708909E-3	5.823810E-6
357	9.609000E+0	5.770805E+0	5.770805E-3	173.286054E-3	5.770805E-6
358	9.635000E+0	5.727190E+0	5.727190E-3	174.605709E-3	5.727190E-6
359	9.661000E+0	5.704863E+0	5.704863E-3	175.289062E-3	5.704863E-6
360	9.688000E+0	5.694678E+0	5.694678E-3	175.602566E-3	5.694678E-6
361	9.714000E+0	5.687092E+0	5.687092E-3	175.836791E-3	5.687092E-6
362	9.741000E+0	5.679507E+0	5.679507E-3	176.071626E-3	5.679507E-6
363	9.767000E+0	5.670423E+0	5.670423E-3	176.353682E-3	5.670423E-6
364	9.793000E+0	5.663878E+0	5.663878E-3	176.557481E-3	5.663878E-6
365	9.820000E+0	5.659474E+0	5.659474E-3	176.694879E-3	5.659474E-6
366	9.846000E+0	5.654060E+0	5.654060E-3	176.864064E-3	5.654060E-6
367	9.872000E+0	5.649319E+0	5.649319E-3	177.012488E-3	5.649319E-6
368	9.899000E+0	5.645557E+0	5.645557E-3	177.130446E-3	5.645557E-6
369	9.925000E+0	5.641734E+0	5.641734E-3	177.250477E-3	5.641734E-6
370	9.952000E+0	5.638584E+0	5.638584E-3	177.349504E-3	5.638584E-6
371	9.978000E+0	5.637207E+0	5.637207E-3	177.392810E-3	5.637207E-6
372	10.004000E+0	5.639501E+0	5.639501E-3	177.320656E-3	5.639501E-6
373	10.030000E+0	5.643844E+0	5.643844E-3	177.184198E-3	5.643844E-6
374	10.056000E+0	5.647392E+0	5.647392E-3	177.072886E-3	5.647392E-6
375	10.083000E+0	5.651613E+0	5.651613E-3	176.940643E-3	5.651613E-6
376	10.109000E+0	5.655711E+0	5.655711E-3	176.812428E-3	5.655711E-6
377	10.136000E+0	5.658525E+0	5.658525E-3	176.724499E-3	5.658525E-6
378	10.162000E+0	5.663296E+0	5.663296E-3	176.575613E-3	5.663296E-6
379	10.188000E+0	5.670575E+0	5.670575E-3	176.348946E-3	5.670575E-6
380	10.215000E+0	5.677488E+0	5.677488E-3	176.134243E-3	5.677488E-6
381	10.241000E+0	5.682351E+0	5.682351E-3	175.983495E-3	5.682351E-6
382	10.267000E+0	5.687428E+0	5.687428E-3	175.826396E-3	5.687428E-6
383	10.294000E+0	5.694096E+0	5.694096E-3	175.620503E-3	5.694096E-6
384	10.320000E+0	5.699632E+0	5.699632E-3	175.449931E-3	5.699632E-6
385	10.347000E+0	5.703394E+0	5.703394E-3	175.334201E-3	5.703394E-6
386	10.373000E+0	5.706116E+0	5.706116E-3	175.250567E-3	5.706116E-6
387	10.399000E+0	5.706819E+0	5.706819E-3	175.228960E-3	5.706819E-6
388	10.425000E+0	5.706391E+0	5.706391E-3	175.242115E-3	5.706391E-6
389	10.452000E+0	5.707859E+0	5.707859E-3	175.197038E-3	5.707859E-6
390	10.478000E+0	5.710123E+0	5.710123E-3	175.127587E-3	5.710123E-6
391	10.505000E+0	5.711101E+0	5.711101E-3	175.097586E-3	5.711101E-6
392	10.531000E+0	5.713211E+0	5.713211E-3	175.032908E-3	5.713211E-6
393	10.557000E+0	5.715964E+0	5.715964E-3	174.948607E-3	5.715964E-6
394	10.583000E+0	5.717891E+0	5.717891E-3	174.889664E-3	5.717891E-6
395	10.610000E+0	5.719298E+0	5.719298E-3	174.846632E-3	5.719298E-6
396	10.636000E+0	5.720338E+0	5.720338E-3	174.814849E-3	5.720338E-6
397	10.663000E+0	5.724283E+0	5.724283E-3	174.694356E-3	5.724283E-6
398	10.689000E+0	5.732756E+0	5.732756E-3	174.436181E-3	5.732756E-6
399	10.715000E+0	5.743705E+0	5.743705E-3	174.103643E-3	5.743705E-6
400	10.742000E+0	5.753492E+0	5.753492E-3	173.807475E-3	5.753492E-6
401	10.768000E+0	5.762974E+0	5.762974E-3	173.521525E-3	5.762974E-6
402	10.794000E+0	5.775422E+0	5.775422E-3	173.147511E-3	5.775422E-6
403	10.820000E+0	5.787351E+0	5.787351E-3	172.790635E-3	5.787351E-6
404	10.847000E+0	5.797015E+0	5.797015E-3	172.502558E-3	5.797015E-6
405	10.873000E+0	5.805274E+0	5.805274E-3	172.257172E-3	5.805274E-6
406	10.900000E+0	5.812369E+0	5.812369E-3	172.046880E-3	5.812369E-6
407	10.926000E+0	5.820811E+0	5.820811E-3	171.797373E-3	5.820811E-6
408	10.952000E+0	5.830751E+0	5.830751E-3	171.504486E-3	5.830751E-6
409	10.978000E+0	5.838857E+0	5.838857E-3	171.266409E-3	5.838857E-6
410	11.005000E+0	5.844209E+0	5.844209E-3	171.109558E-3	5.844209E-6
411	11.031000E+0	5.849530E+0	5.849530E-3	170.953893E-3	5.849530E-6
412	11.058000E+0	5.856290E+0	5.856290E-3	170.756571E-3	5.856290E-6
413	11.084000E+0	5.862896E+0	5.862896E-3	170.564162E-3	5.862896E-6
414	11.110000E+0	5.867606E+0	5.867606E-3	170.427243E-3	5.867606E-6
415	11.137000E+0	5.871766E+0	5.871766E-3	170.306507E-3	5.871766E-6
416	11.163000E+0	5.877302E+0	5.877302E-3	170.146097E-3	5.877302E-6
417	11.189000E+0	5.882777E+0	5.882777E-3	169.987751E-3	5.882777E-6
418	11.216000E+0	5.887181E+0	5.887181E-3	169.860569E-3	5.887181E-6
419	11.242000E+0	5.890026E+0	5.890026E-3	169.778544E-3	5.890026E-6
420	11.268000E+0	5.890301E+0	5.890301E-3	169.770612E-3	5.890301E-6
421	11.295000E+0	5.889567E+0	5.889567E-3	169.791767E-3	5.889567E-6
422	11.321000E+0	5.886937E+0	5.886937E-3	169.867637E-3	5.886937E-6
423	11.347000E+0	5.882226E+0	5.882226E-3	170.003657E-3	5.882226E-6
424	11.373000E+0	5.879994E+0	5.879994E-3	170.068214E-3	5.879994E-6
425	11.400000E+0	5.881187E+0	5.881187E-3	170.033715E-3	5.881187E-6
426	11.426000E+0	5.884367E+0	5.884367E-3	169.941812E-3	5.884367E-6
427	11.453000E+0	5.887701E+0	5.887701E-3	169.845576E-3	5.887701E-6
428	11.479000E+0	5.888374E+0	5.888374E-3	169.826168E-3	5.888374E-6
429	11.505000E+0	5.886661E+0	5.886661E-3	169.875591E-3	5.886661E-6
430	11.532000E+0	5.885468E+0	5.885468E-3	169.910013E-3	5.885468E-6
431	11.558000E+0	5.887701E+0	5.887701E-3	169.845576E-3	5.887701E-6
432	11.584000E+0	5.891555E+0	5.891555E-3	169.734490E-3	5.891555E-6
433	11.611000E+0	5.893910E+0	5.893910E-3	169.666661E-3	5.893910E-6
434	11.637000E+0	5.895439E+0	5.895439E-3	169.622650E-3	5.895439E-6
435	11.664000E+0	5.896448E+0	5.896448E-3	169.593622E-3	5.896448E-6
436	11.690000E+0	5.898589E+0	5.898589E-3	169.532062E-3	5.898589E-6
437	11.716000E+0	5.903085E+0	5.903085E-3	169.402941E-3	5.903085E-6
438	11.742000E+0	5.908897E+0	5.908897E-3	169.236332E-3	5.908897E-6
439	11.769000E+0	5.916053E+0	5.916053E-3	169.031604E-3	5.916053E-6
440	11.795000E+0	5.925290E+0	5.925290E-3	168.768103E-3	5.925290E-6
441	11.822000E+0	5.935812E+0	5.935812E-3	168.468950E-3	5.935812E-6
442	11.848000E+0	5.944498E+0	5.944498E-3	168.222787E-3	5.944498E-6
443	11.874000E+0	5.956640E+0	5.956640E-3	167.879865E-3	5.956640E-6
444	11.901000E+0	5.976399E+0	5.976399E-3	167.324841E-3	5.976399E-6
445	11.933000E+0	6.003436E+0	6.003436E-3	166.571272E-3	6.003436E-6
446	11.966000E+0	6.040108E+0	6.040108E-3	165.559943E-3	6.040108E-6
447	11.998000E+0	6.079044E+0	6.079044E-3	164.499557E-3	6.079044E-6
448	12.030000E+0	6.103451E+0	6.103451E-3	163.841737E-3	6.103451E-6
449	12.063000E+0	6.104552E+0	6.104552E-3	163.812192E-3	6.104552E-6
450	12.095000E+0	6.098435E+0	6.098435E-3	163.976501E-3	6.098435E-6
451	12.128000E+0	6.093113E+0	6.093113E-3	164.119727E-3	6.093113E-6
452	12.160000E+0	6.082163E+0	6.082163E-3	164.415187E-3	6.082163E-6
453	12.193000E+0	6.070357E+0	6.070357E-3	164.734950E-3	6.070357E-6
454	12.225000E+0	6.060111E+0	6.060111E-3	165.013483E-3	6.060111E-6
455	12.253000E+0	6.051272E+0	6.051272E-3	165.254520E-3	6.051272E-6
456	12.280000E+0	6.043075E+0	6.043075E-3	165.478664E-3	6.043075E-6
457	12.306000E+0	6.033135E+0	6.033135E-3	165.751315E-3	6.033135E-6
458	12.333000E+0	6.022369E+0	6.022369E-3	166.047626E-3	6.022369E-6
459	12.359000E+0	6.013957E+0	6.013957E-3	166.279863E-3	6.013957E-6
460	12.385000E+0	6.008544E+0	6.008544E-3	166.429671E-3	6.008544E-6
461	12.411000E+0	6.003436E+0	6.003436E-3	166.571272E-3	6.003436E-6
462	12.438000E+0	5.997166E+0	5.997166E-3	166.745425E-3	5.997166E-6
463	12.464000E+0	5.990743E+0	5.990743E-3	166.924198E-3	5.990743E-6
464	12.491000E+0	5.985880E+0	5.985880E-3	167.059820E-3	5.985880E-6
465	12.517000E+0	5.981353E+0	5.981353E-3	167.186251E-3	5.981353E-6
466	12.543000E+0	5.974777E+0	5.974777E-3	167.370262E-3	5.974777E-6
467	12.569000E+0	5.967406E+0	5.967406E-3	167.576998E-3	5.967406E-6
468	12.596000E+0	5.960952E+0	5.960952E-3	167.758425E-3	5.960952E-6
469	12.622000E+0	5.958475E+0	5.958475E-3	167.828173E-3	5.958475E-6
470	12.649000E+0	5.961962E+0	5.961962E-3	167.730018E-3	5.961962E-6
471	12.675000E+0	5.966366E+0	5.966366E-3	167.606204E-3	5.966366E-6
472	12.701000E+0	5.968385E+0	5.968385E-3	167.549516E-3	5.968385E-6
473	12.728000E+0	5.969333E+0	5.969333E-3	167.522904E-3	5.969333E-6
474	12.754000E+0	5.969302E+0	5.969302E-3	167.523767E-3	5.969302E-6
475	12.780000E+0	5.968262E+0	5.968262E-3	167.552954E-3	5.968262E-6
476	12.807000E+0	5.968171E+0	5.968171E-3	167.555529E-3	5.968171E-6
477	12.833000E+0	5.968844E+0	5.968844E-3	167.536640E-3	5.968844E-6
478	12.860000E+0	5.966305E+0	5.966305E-3	167.607930E-3	5.966305E-6
479	12.886000E+0	5.959362E+0	5.959362E-3	167.803204E-3	5.959362E-6
480	12.912000E+0	5.951134E+0	5.951134E-3	168.035188E-3	5.951134E-6
481	12.938000E+0	5.943182E+0	5.943182E-3	168.260035E-3	5.943182E-6
482	12.964000E+0	5.936239E+0	5.936239E-3	168.456832E-3	5.936239E-6
483	12.991000E+0	5.929939E+0	5.929939E-3	168.635812E-3	5.929939E-6
484	13.017000E+0	5.922935E+0	5.922935E-3	168.835228E-3	5.922935E-6
485	13.044000E+0	5.916787E+0	5.916787E-3	169.010651E-3	5.916787E-6
486	13.070000E+0	5.911465E+0	5.911465E-3	169.162811E-3	5.911465E-6
487	13.096000E+0	5.906724E+0	5.906724E-3	169.298585E-3	5.906724E-6
488	13.123000E+0	5.902105E+0	5.902105E-3	169.431062E-3	5.902105E-6
489	13.149000E+0	5.895101E+0	5.895101E-3	169.632364E-3	5.895101E-6
490	13.175000E+0	5.887149E+0	5.887149E-3	169.861496E-3	5.887149E-6
491	13.202000E+0	5.880818E+0	5.880818E-3	170.044378E-3	5.880818E-6
492	13.228000E+0	5.874823E+0	5.874823E-3	170.217885E-3	5.874823E-6
493	13.255000E+0	5.862528E+0	5.862528E-3	170.574892E-3	5.862528E-6
494	13.281000E+0	5.842066E+0	5.842066E-3	171.172325E-3	5.842066E-6
495	13.307000E+0	5.813591E+0	5.813591E-3	172.010733E-3	5.813591E-6
496	13.333000E+0	5.774380E+0	5.774380E-3	173.178760E-3	5.774380E-6
497	13.360000E+0	5.730674E+0	5.730674E-3	174.499554E-3	5.730674E-6
498	13.386000E+0	5.697947E+0	5.697947E-3	175.501808E-3	5.697947E-6
499	13.413000E+0	5.685835E+0	5.685835E-3	175.875658E-3	5.685835E-6
500	13.439000E+0	5.681369E+0	5.681369E-3	176.013901E-3	5.681369E-6
501	13.465000E+0	5.675925E+0	5.675925E-3	176.182724E-3	5.675925E-6
502	13.491000E+0	5.673448E+0	5.673448E-3	176.259654E-3	5.673448E-6
503	13.518000E+0	5.671032E+0	5.671032E-3	176.334755E-3	5.671032E-6
504	13.544000E+0	5.667851E+0	5.667851E-3	176.433719E-3	5.667851E-6
505	13.571000E+0	5.664639E+0	5.664639E-3	176.533751E-3	5.664639E-6
506	13.597000E+0	5.660571E+0	5.660571E-3	176.660618E-3	5.660571E-6
507	13.623000E+0	5.656350E+0	5.656350E-3	176.792442E-3	5.656350E-6
508	13.650000E+0	5.652558E+0	5.652558E-3	176.911053E-3	5.652558E-6
509	13.676000E+0	5.647542E+0	5.647542E-3	177.068184E-3	5.647542E-6
510	13.702000E+0	5.641027E+0	5.641027E-3	177.272688E-3	5.641027E-6
511	13.728000E+0	5.634421E+0	5.634421E-3	177.480540E-3	5.634421E-6
512	13.755000E+0	5.627998E+0	5.627998E-3	177.683086E-3	5.627998E-6
513	13.781000E+0	5.622920E+0	5.622920E-3	177.843537E-3	5.622920E-6
514	13.808000E+0	5.620198E+0	5.620198E-3	177.929664E-3	5.620198E-6
515	13.834000E+0	5.625490E+0	5.625490E-3	177.762304E-3	5.625490E-6
516	13.860000E+0	5.640385E+0	5.640385E-3	177.292870E-3	5.640385E-6
517	13.886000E+0	5.657145E+0	5.657145E-3	176.767601E-3	5.657145E-6
518	13.913000E+0	5.672622E+0	5.672622E-3	176.285337E-3	5.672622E-6
519	13.939000E+0	5.683571E+0	5.683571E-3	175.945718E-3	5.683571E-6
520	13.966000E+0	5.688923E+0	5.688923E-3	175.780183E-3	5.688923E-6
521	13.992000E+0	5.690850E+0	5.690850E-3	175.720665E-3	5.690850E-6
522	14.018000E+0	5.690116E+0	5.690116E-3	175.743328E-3	5.690116E-6
523	14.045000E+0	5.692196E+0	5.692196E-3	175.679120E-3	5.692196E-6
524	14.071000E+0	5.697457E+0	5.697457E-3	175.516912E-3	5.697457E-6
525	14.097000E+0	5.698619E+0	5.698619E-3	175.481114E-3	5.698619E-6
526	14.124000E+0	5.695958E+0	5.695958E-3	175.563087E-3	5.695958E-6
527	14.150000E+0	5.691370E+0	5.691370E-3	175.704605E-3	5.691370E-6
528	14.177000E+0	5.684794E+0	5.684794E-3	175.907857E-3	5.684794E-6
529	14.203000E+0	5.681338E+0	5.681338E-3	176.014868E-3	5.681338E-6
530	14.229000E+0	5.682714E+0	5.682714E-3	175.972247E-3	5.682714E-6
531	14.255000E+0	5.685590E+0	5.685590E-3	175.883250E-3	5.685590E-6
532	14.282000E+0	5.688006E+0	5.688006E-3	175.808547E-3	5.688006E-6
533	14.308000E+0	5.689718E+0	5.689718E-3	175.755626E-3	5.689718E-6
534	14.335000E+0	5.691126E+0	5.691126E-3	175.712167E-3	5.691126E-6
535	14.361000E+0	5.692104E+0	5.692104E-3	175.681952E-3	5.692104E-6
536	14.387000E+0	5.691768E+0	5.691768E-3	175.692343E-3	5.691768E-6
537	14.413000E+0	5.691492E+0	5.691492E-3	175.700839E-3	5.691492E-6
538	14.440000E+0	5.693756E+0	5.693756E-3	175.631002E-3	5.693756E-6
539	14.466000E+0	5.697273E+0	5.697273E-3	175.522565E-3	5.697273E-6
540	14.493000E+0	5.699597E+0	5.699597E-3	175.450992E-3	5.699597E-6
541	14.519000E+0	5.700607E+0	5.700607E-3	175.419920E-3	5.700607E-6
542	14.545000E+0	5.701738E+0	5.701738E-3	175.385107E-3	5.701738E-6
543	14.572000E+0	5.703207E+0	5.703207E-3	175.339956E-3	5.703207E-6
544	14.598000E+0	5.704338E+0	5.704338E-3	175.305174E-3	5.704338E-6
545	14.625000E+0	5.706571E+0	5.706571E-3	175.236581E-3	5.706571E-6
546	14.651000E+0	5.710088E+0	5.710088E-3	175.128644E-3	5.710088E-6
547	14.683000E+0	5.712566E+0	5.712565E-3	175.052697E-3	5.712565E-6
548	14.716000E+0	5.713453E+0	5.713453E-3	175.025518E-3	5.713453E-6
549	14.748000E+0	5.714523E+0	5.714523E-3	174.992729E-3	5.714523E-6
550	14.781000E+0	5.716542E+0	5.716542E-3	174.930935E-3	5.716542E-6
551	14.813000E+0	5.717521E+0	5.717521E-3	174.900988E-3	5.717521E-6
552	14.846000E+0	5.716756E+0	5.716756E-3	174.924380E-3	5.716756E-6
553	14.878000E+0	5.717123E+0	5.717123E-3	174.913153E-3	5.717123E-6
554	14.911000E+0	5.719080E+0	5.719080E-3	174.853295E-3	5.719080E-6
555	14.943000E+0	5.719906E+0	5.719906E-3	174.828042E-3	5.719906E-6
556	14.976000E+0	5.720885E+0	5.720885E-3	174.798144E-3	5.720885E-6
557	15.003000E+0	5.726176E+0	5.726176E-3	174.636621E-3	5.726176E-6
558	15.030000E+0	5.735260E+0	5.735260E-3	174.360012E-3	5.735260E-6
559	15.056000E+0	5.743549E+0	5.743549E-3	174.108386E-3	5.743549E-6
560	15.083000E+0	5.749972E+0	5.749972E-3	173.913902E-3	5.749972E-6
561	15.109000E+0	5.756609E+0	5.756609E-3	173.713388E-3	5.756609E-6
562	15.135000E+0	5.764286E+0	5.764286E-3	173.482037E-3	5.764286E-6
563	15.161000E+0	5.772268E+0	5.772268E-3	173.242117E-3	5.772268E-6
564	15.188000E+0	5.777285E+0	5.777285E-3	173.091701E-3	5.777285E-6
565	15.214000E+0	5.772483E+0	5.772483E-3	173.235689E-3	5.772483E-6
566	15.241000E+0	5.757587E+0	5.757587E-3	173.683870E-3	5.757587E-6
567	15.267000E+0	5.739542E+0	5.739542E-3	174.229938E-3	5.739542E-6
568	15.293000E+0	5.723056E+0	5.723056E-3	174.731810E-3	5.723056E-6
569	15.320000E+0	5.710853E+0	5.710853E-3	175.105196E-3	5.710853E-6
570	15.346000E+0	5.702350E+0	5.702350E-3	175.366302E-3	5.702350E-6
571	15.372000E+0	5.698037E+0	5.698037E-3	175.499026E-3	5.698037E-6
572	15.399000E+0	5.698649E+0	5.698649E-3	175.480196E-3	5.698649E-6
573	15.425000E+0	5.696967E+0	5.696967E-3	175.532005E-3	5.696967E-6
574	15.452000E+0	5.689902E+0	5.689902E-3	175.749959E-3	5.689902E-6
575	15.478000E+0	5.683846E+0	5.683846E-3	175.937214E-3	5.683846E-6
576	15.504000E+0	5.679105E+0	5.679105E-3	176.084086E-3	5.679105E-6
577	15.530000E+0	5.676046E+0	5.676046E-3	176.178966E-3	5.676046E-6
578	15.556000E+0	5.677331E+0	5.677331E-3	176.139112E-3	5.677331E-6
579	15.583000E+0	5.678187E+0	5.678187E-3	176.112548E-3	5.678187E-6
580	15.610000E+0	5.675159E+0	5.675159E-3	176.206505E-3	5.675159E-6
581	15.636000E+0	5.670755E+0	5.670755E-3	176.343356E-3	5.670755E-6
582	15.662000E+0	5.665953E+0	5.665953E-3	176.492808E-3	5.665953E-6
583	15.688000E+0	5.660845E+0	5.660845E-3	176.652059E-3	5.660845E-6
584	15.715000E+0	5.656808E+0	5.656808E-3	176.778136E-3	5.656808E-6
585	15.741000E+0	5.653169E+0	5.653169E-3	176.891949E-3	5.653169E-6
586	15.767000E+0	5.649498E+0	5.649498E-3	177.006871E-3	5.649498E-6
587	15.794000E+0	5.645124E+0	5.645124E-3	177.144020E-3	5.645124E-6
588	15.820000E+0	5.638732E+0	5.638732E-3	177.344832E-3	5.638732E-6
589	15.847000E+0	5.631545E+0	5.631545E-3	177.571176E-3	5.631545E-6
590	15.873000E+0	5.625366E+0	5.625366E-3	177.766204E-3	5.625366E-6
591	15.899000E+0	5.619891E+0	5.619891E-3	177.939380E-3	5.619891E-6
592	15.925000E+0	5.616190E+0	5.616190E-3	178.056642E-3	5.616190E-6
593	15.952000E+0	5.617077E+0	5.617077E-3	178.028522E-3	5.617077E-6
594	15.978000E+0	5.618454E+0	5.618454E-3	177.984906E-3	5.618454E-6
595	16.005000E+0	5.615456E+0	5.615457E-3	178.079912E-3	5.615457E-6
596	16.031000E+0	5.611756E+0	5.611756E-3	178.197345E-3	5.611756E-6
597	16.057000E+0	5.610746E+0	5.610746E-3	178.229409E-3	5.610746E-6
598	16.083000E+0	5.610349E+0	5.610349E-3	178.242042E-3	5.610349E-6
599	16.110000E+0	5.607474E+0	5.607474E-3	178.333428E-3	5.607474E-6
600	16.136000E+0	5.602244E+0	5.602244E-3	178.499907E-3	5.602244E-6
601	16.163000E+0	5.598237E+0	5.598237E-3	178.627670E-3	5.598237E-6
602	16.189000E+0	5.596371E+0	5.596371E-3	178.687212E-3	5.596371E-6
603	16.215000E+0	5.592915E+0	5.592915E-3	178.797632E-3	5.592915E-6
604	16.242000E+0	5.588266E+0	5.588266E-3	178.946383E-3	5.588266E-6
605	16.268000E+0	5.586308E+0	5.586308E-3	179.009092E-3	5.586308E-6
606	16.294000E+0	5.586186E+0	5.586186E-3	179.013002E-3	5.586186E-6
607	16.321000E+0	5.582822E+0	5.582822E-3	179.120881E-3	5.582822E-6
608	16.347000E+0	5.574717E+0	5.574717E-3	179.381312E-3	5.574717E-6
609	16.373000E+0	5.567254E+0	5.567254E-3	179.621766E-3	5.567254E-6
610	16.400000E+0	5.562880E+0	5.562880E-3	179.762998E-3	5.562880E-6
611	16.426000E+0	5.558996E+0	5.558996E-3	179.888599E-3	5.558996E-6
612	16.452000E+0	5.553460E+0	5.553460E-3	180.067930E-3	5.553460E-6
613	16.478000E+0	5.545018E+0	5.545018E-3	180.342058E-3	5.545018E-6
614	16.505000E+0	5.535965E+0	5.535965E-3	180.636985E-3	5.535965E-6
615	16.531000E+0	5.528655E+0	5.528655E-3	180.875822E-3	5.528655E-6
616	16.558000E+0	5.522966E+0	5.522966E-3	181.062135E-3	5.522966E-6
617	16.584000E+0	5.518868E+0	5.518868E-3	181.196591E-3	5.518868E-6
618	16.610000E+0	5.515473E+0	5.515473E-3	181.308129E-3	5.515473E-6
619	16.637000E+0	5.511588E+0	5.511588E-3	181.435899E-3	5.511588E-6
620	16.663000E+0	5.506022E+0	5.506022E-3	181.619328E-3	5.506022E-6
621	16.689000E+0	5.499171E+0	5.499171E-3	181.845603E-3	5.499171E-6
622	16.716000E+0	5.491310E+0	5.491310E-3	182.105901E-3	5.491310E-6
623	16.742000E+0	5.483450E+0	5.483450E-3	182.366944E-3	5.483450E-6
624	16.769000E+0	5.477241E+0	5.477241E-3	182.573679E-3	5.477241E-6
625	16.795000E+0	5.471277E+0	5.471277E-3	182.772701E-3	5.471277E-6
626	16.821000E+0	5.465007E+0	5.465007E-3	182.982385E-3	5.465007E-6
627	16.847000E+0	5.459165E+0	5.459165E-3	183.178206E-3	5.459165E-6
628	16.874000E+0	5.454669E+0	5.454669E-3	183.329188E-3	5.454669E-6
629	16.900000E+0	5.451274E+0	5.451274E-3	183.443369E-3	5.451274E-6
630	16.927000E+0	5.447787E+0	5.447787E-3	183.560767E-3	5.447787E-6
631	16.953000E+0	5.443872E+0	5.443872E-3	183.692769E-3	5.443872E-6
632	16.979000E+0	5.439957E+0	5.439957E-3	183.824978E-3	5.439957E-6
633	17.005000E+0	5.436684E+0	5.436684E-3	183.935633E-3	5.436684E-6
634	17.032000E+0	5.434268E+0	5.434268E-3	184.017419E-3	5.434268E-6
635	17.058000E+0	5.432892E+0	5.432892E-3	184.064026E-3	5.432892E-6
636	17.085000E+0	5.431455E+0	5.431455E-3	184.112741E-3	5.431455E-6
637	17.111000E+0	5.428824E+0	5.428824E-3	184.201952E-3	5.428824E-6
638	17.137000E+0	5.425766E+0	5.425766E-3	184.305786E-3	5.425766E-6
639	17.164000E+0	5.422310E+0	5.422310E-3	184.423261E-3	5.422310E-6
640	17.190000E+0	5.416987E+0	5.416987E-3	184.604452E-3	5.416987E-6
641	17.216000E+0	5.410259E+0	5.410259E-3	184.834046E-3	5.410259E-6
642	17.243000E+0	5.402643E+0	5.402643E-3	185.094584E-3	5.402643E-6
643	17.269000E+0	5.393437E+0	5.393437E-3	185.410540E-3	5.393437E-6
644	17.296000E+0	5.385699E+0	5.385699E-3	185.676928E-3	5.385699E-6
645	17.322000E+0	5.381233E+0	5.381233E-3	185.831015E-3	5.381233E-6
646	17.348000E+0	5.376523E+0	5.376523E-3	185.993814E-3	5.376523E-6
647	17.375000E+0	5.370528E+0	5.370528E-3	186.201416E-3	5.370528E-6
648	17.401000E+0	5.365267E+0	5.365267E-3	186.384000E-3	5.365267E-6
649	17.434000E+0	5.361903E+0	5.361903E-3	186.500950E-3	5.361903E-6
650	17.466000E+0	5.360802E+0	5.360802E-3	186.539247E-3	5.360802E-6
651	17.498000E+0	5.360680E+0	5.360680E-3	186.543509E-3	5.360680E-6
652	17.531000E+0	5.359487E+0	5.359487E-3	186.585017E-3	5.359487E-6
653	17.563000E+0	5.358936E+0	5.358936E-3	186.604197E-3	5.358936E-6
654	17.596000E+0	5.360099E+0	5.360099E-3	186.563734E-3	5.360099E-6
655	17.629000E+0	5.359915E+0	5.359915E-3	186.570120E-3	5.359915E-6
656	17.661000E+0	5.357101E+0	5.357101E-3	186.668122E-3	5.357101E-6
657	17.694000E+0	5.353676E+0	5.353676E-3	186.787556E-3	5.353676E-6
658	17.726000E+0	5.350923E+0	5.350923E-3	186.883640E-3	5.350923E-6
659	17.754000E+0	5.347865E+0	5.347865E-3	186.990520E-3	5.347865E-6
660	17.780000E+0	5.344255E+0	5.344255E-3	187.116807E-3	5.344255E-6
661	17.807000E+0	5.340371E+0	5.340371E-3	187.252898E-3	5.340371E-6
662	17.833000E+0	5.336701E+0	5.336701E-3	187.381682E-3	5.336701E-6
663	17.860000E+0	5.334162E+0	5.334162E-3	187.470866E-3	5.334162E-6
664	17.886000E+0	5.333031E+0	5.333031E-3	187.510644E-3	5.333031E-6
665	17.912000E+0	5.333581E+0	5.333581E-3	187.491293E-3	5.333581E-6
666	17.938000E+0	5.334193E+0	5.334193E-3	187.469786E-3	5.334193E-6
667	17.965000E+0	5.332786E+0	5.332786E-3	187.519256E-3	5.332786E-6
668	17.991000E+0	5.330002E+0	5.330002E-3	187.617176E-3	5.330002E-6
669	18.018000E+0	5.326914E+0	5.326914E-3	187.725963E-3	5.326914E-6
670	18.044000E+0	5.324008E+0	5.324008E-3	187.828420E-3	5.324008E-6
671	18.070000E+0	5.322662E+0	5.322662E-3	187.875910E-3	5.322662E-6
672	18.097000E+0	5.323182E+0	5.323182E-3	187.857568E-3	5.323182E-6
673	18.123000E+0	5.323029E+0	5.323029E-3	187.862959E-3	5.323029E-6
674	18.149000E+0	5.321898E+0	5.321898E-3	187.902902E-3	5.321898E-6
675	18.175000E+0	5.321622E+0	5.321622E-3	187.912620E-3	5.321622E-6
676	18.202000E+0	5.321469E+0	5.321469E-3	187.918030E-3	5.321469E-6
677	18.228000E+0	5.320919E+0	5.320919E-3	187.937469E-3	5.320919E-6
678	18.255000E+0	5.320858E+0	5.320858E-3	187.939623E-3	5.320858E-6
679	18.281000E+0	5.321347E+0	5.321347E-3	187.922355E-3	5.321347E-6
680	18.307000E+0	5.322142E+0	5.322142E-3	187.894271E-3	5.322142E-6
681	18.333000E+0	5.322356E+0	5.322356E-3	187.886709E-3	5.322356E-6
682	18.360000E+0	5.321592E+0	5.321592E-3	187.913705E-3	5.321592E-6
683	18.386000E+0	5.321286E+0	5.321286E-3	187.924509E-3	5.321286E-6
684	18.413000E+0	5.321531E+0	5.321531E-3	187.915859E-3	5.321531E-6
685	18.439000E+0	5.321836E+0	5.321836E-3	187.905073E-3	5.321836E-6
686	18.465000E+0	5.323060E+0	5.323060E-3	187.861874E-3	5.323060E-6
687	18.492000E+0	5.324987E+0	5.324987E-3	187.793894E-3	5.324987E-6
688	18.518000E+0	5.326179E+0	5.326179E-3	187.751846E-3	5.326179E-6
689	18.544000E+0	5.326822E+0	5.326822E-3	187.729196E-3	5.326822E-6
690	18.571000E+0	5.328198E+0	5.328198E-3	187.680714E-3	5.328198E-6
691	18.597000E+0	5.329850E+0	5.329850E-3	187.622553E-3	5.329850E-6
692	18.624000E+0	5.331624E+0	5.331624E-3	187.560119E-3	5.331624E-6
693	18.650000E+0	5.333122E+0	5.333122E-3	187.507418E-3	5.333122E-6
694	18.676000E+0	5.333887E+0	5.333887E-3	187.480539E-3	5.333887E-6
695	18.702000E+0	5.335416E+0	5.335416E-3	187.426804E-3	5.335416E-6
696	18.728000E+0	5.337649E+0	5.337649E-3	187.348399E-3	5.337649E-6
697	18.755000E+0	5.338995E+0	5.338995E-3	187.301175E-3	5.338995E-6
698	18.781000E+0	5.339820E+0	5.339820E-3	187.272216E-3	5.339820E-6
699	18.808000E+0	5.340738E+0	5.340738E-3	187.240033E-3	5.340738E-6
700	18.834000E+0	5.341074E+0	5.341074E-3	187.228247E-3	5.341074E-6
701	18.860000E+0	5.340830E+0	5.340830E-3	187.236817E-3	5.340830E-6
702	18.887000E+0	5.340585E+0	5.340585E-3	187.245404E-3	5.340585E-6
703	18.913000E+0	5.339729E+0	5.339729E-3	187.275433E-3	5.339729E-6
704	18.939000E+0	5.337771E+0	5.337771E-3	187.344101E-3	5.337771E-6
705	18.966000E+0	5.336731E+0	5.336731E-3	187.380619E-3	5.336731E-6
706	18.992000E+0	5.337741E+0	5.337741E-3	187.345179E-3	5.337741E-6
707	19.019000E+0	5.339484E+0	5.339484E-3	187.284008E-3	5.339484E-6
708	19.045000E+0	5.341778E+0	5.341778E-3	187.203585E-3	5.341778E-6
709	19.071000E+0	5.344959E+0	5.344959E-3	187.092175E-3	5.344959E-6
710	19.097000E+0	5.346855E+0	5.346855E-3	187.025826E-3	5.346855E-6
711	19.124000E+0	5.347008E+0	5.347008E-3	187.020483E-3	5.347008E-6
712	19.150000E+0	5.348690E+0	5.348690E-3	186.961656E-3	5.348690E-6
713	19.177000E+0	5.351749E+0	5.351749E-3	186.854810E-3	5.351749E-6
714	19.203000E+0	5.352972E+0	5.352972E-3	186.812108E-3	5.352972E-6
715	19.229000E+0	5.352758E+0	5.352758E-3	186.819568E-3	5.352758E-6
716	19.255000E+0	5.353125E+0	5.353125E-3	186.806762E-3	5.353125E-6
717	19.282000E+0	5.354379E+0	5.354379E-3	186.763011E-3	5.354379E-6
718	19.308000E+0	5.356184E+0	5.356184E-3	186.700093E-3	5.356184E-6
719	19.335000E+0	5.358508E+0	5.358508E-3	186.619100E-3	5.358508E-6
720	19.361000E+0	5.361292E+0	5.361292E-3	186.522219E-3	5.361292E-6
721	19.387000E+0	5.362576E+0	5.362576E-3	186.477548E-3	5.362576E-6
722	19.414000E+0	5.362056E+0	5.362056E-3	186.495621E-3	5.362056E-6
723	19.440000E+0	5.361689E+0	5.361689E-3	186.508384E-3	5.361689E-6
724	19.466000E+0	5.361598E+0	5.361598E-3	186.511575E-3	5.361598E-6
725	19.492000E+0	5.361414E+0	5.361414E-3	186.517958E-3	5.361414E-6
726	19.519000E+0	5.362056E+0	5.362056E-3	186.495621E-3	5.362056E-6
727	19.545000E+0	5.363433E+0	5.363433E-3	186.447758E-3	5.363433E-6
728	19.572000E+0	5.364534E+0	5.364534E-3	186.409498E-3	5.364534E-6
729	19.598000E+0	5.365971E+0	5.365971E-3	186.359561E-3	5.365971E-6
730	19.624000E+0	5.367775E+0	5.367775E-3	186.296914E-3	5.367775E-6
731	19.650000E+0	5.370253E+0	5.370253E-3	186.210958E-3	5.370253E-6
732	19.677000E+0	5.373526E+0	5.373526E-3	186.097549E-3	5.373526E-6
733	19.703000E+0	5.375422E+0	5.375422E-3	186.031904E-3	5.375422E-6
734	19.730000E+0	5.376217E+0	5.376217E-3	186.004382E-3	5.376217E-6
735	19.756000E+0	5.377043E+0	5.377043E-3	185.975822E-3	5.377043E-6
736	19.782000E+0	5.377930E+0	5.377930E-3	185.945146E-3	5.377930E-6
737	19.809000E+0	5.378756E+0	5.378756E-3	185.916604E-3	5.378756E-6
738	19.835000E+0	5.379031E+0	5.379031E-3	185.907092E-3	5.379031E-6
739	19.861000E+0	5.378817E+0	5.378817E-3	185.914495E-3	5.378817E-6
740	19.888000E+0	5.377563E+0	5.377563E-3	185.957850E-3	5.377563E-6
741	19.914000E+0	5.376493E+0	5.376493E-3	185.994861E-3	5.376493E-6
742	19.941000E+0	5.375575E+0	5.375575E-3	186.026618E-3	5.375575E-6
743	19.967000E+0	5.373281E+0	5.373281E-3	186.106032E-3	5.373281E-6
744	19.993000E+0	5.371232E+0	5.371232E-3	186.177040E-3	5.371232E-6
745	20.019000E+0	5.370437E+0	5.370437E-3	186.204597E-3	5.370437E-6
746	20.046000E+0	5.369978E+0	5.369978E-3	186.220517E-3	5.369978E-6
747	20.072000E+0	5.370100E+0	5.370100E-3	186.216271E-3	5.370100E-6
748	20.099000E+0	5.370742E+0	5.370742E-3	186.194006E-3	5.370742E-6
749	20.125000E+0	5.370712E+0	5.370712E-3	186.195055E-3	5.370712E-6
750	20.151000E+0	5.370314E+0	5.370314E-3	186.208843E-3	5.370314E-6
751	20.184000E+0	5.369580E+0	5.369580E-3	186.234293E-3	5.369580E-6
752	20.217000E+0	5.368602E+0	5.368602E-3	186.268248E-3	5.368602E-6
753	20.249000E+0	5.368816E+0	5.368816E-3	186.260816E-3	5.368816E-6
754	20.281000E+0	5.370589E+0	5.370589E-3	186.199301E-3	5.370589E-6
755	20.313000E+0	5.372608E+0	5.372608E-3	186.129341E-3	5.372608E-6
756	20.346000E+0	5.373893E+0	5.373893E-3	186.084842E-3	5.373893E-6
757	20.379000E+0	5.374107E+0	5.374107E-3	186.077441E-3	5.374107E-6
758	20.411000E+0	5.372883E+0	5.372883E-3	186.119807E-3	5.372883E-6
759	20.444000E+0	5.371415E+0	5.371415E-3	186.170681E-3	5.371415E-6
760	20.476000E+0	5.371018E+0	5.371018E-3	186.184449E-3	5.371018E-6
761	20.504000E+0	5.371201E+0	5.371201E-3	186.178089E-3	5.371201E-6
762	20.530000E+0	5.369611E+0	5.369611E-3	186.233243E-3	5.369611E-6
763	20.557000E+0	5.366002E+0	5.366002E-3	186.358493E-3	5.366002E-6
764	20.583000E+0	5.363830E+0	5.363830E-3	186.433951E-3	5.363830E-6
765	20.610000E+0	5.362790E+0	5.362790E-3	186.470100E-3	5.362790E-6
766	20.636000E+0	5.361506E+0	5.361506E-3	186.514767E-3	5.361506E-6
767	20.662000E+0	5.361659E+0	5.361659E-3	186.509453E-3	5.361659E-6
768	20.689000E+0	5.363004E+0	5.363004E-3	186.462652E-3	5.363004E-6
769	20.715000E+0	5.364411E+0	5.364411E-3	186.413754E-3	5.364411E-6
770	20.741000E+0	5.365084E+0	5.365084E-3	186.390374E-3	5.365084E-6
771	20.767000E+0	5.365267E+0	5.365267E-3	186.384000E-3	5.365267E-6
772	20.794000E+0	5.366521E+0	5.366521E-3	186.340447E-3	5.366521E-6
773	20.820000E+0	5.368938E+0	5.368938E-3	186.256583E-3	5.368938E-6
774	20.847000E+0	5.370987E+0	5.370987E-3	186.185515E-3	5.370987E-6
775	20.873000E+0	5.371568E+0	5.371568E-3	186.165371E-3	5.371568E-6
776	20.899000E+0	5.370773E+0	5.370773E-3	186.192940E-3	5.370773E-6
777	20.925000E+0	5.369580E+0	5.369580E-3	186.234293E-3	5.369580E-6
778	20.952000E+0	5.369274E+0	5.369274E-3	186.244905E-3	5.369274E-6
779	20.978000E+0	5.368663E+0	5.368663E-3	186.266131E-3	5.368663E-6
780	21.005000E+0	5.366919E+0	5.366919E-3	186.326639E-3	5.366919E-6
781	21.031000E+0	5.365573E+0	5.365573E-3	186.373373E-3	5.365573E-6
782	21.057000E+0	5.364350E+0	5.364350E-3	186.415874E-3	5.364350E-6
783	21.084000E+0	5.363004E+0	5.363004E-3	186.462652E-3	5.363004E-6
784	21.110000E+0	5.362179E+0	5.362179E-3	186.491362E-3	5.362179E-6
785	21.136000E+0	5.361873E+0	5.361873E-3	186.502002E-3	5.361873E-6
786	21.163000E+0	5.361811E+0	5.361811E-3	186.504140E-3	5.361811E-6
787	21.189000E+0	5.360986E+0	5.360986E-3	186.532863E-3	5.360986E-6
788	21.216000E+0	5.359273E+0	5.359273E-3	186.592475E-3	5.359273E-6
789	21.242000E+0	5.358019E+0	5.358019E-3	186.636146E-3	5.358019E-6
790	21.268000E+0	5.358233E+0	5.358233E-3	186.628685E-3	5.358233E-6
791	21.294000E+0	5.358814E+0	5.358814E-3	186.608446E-3	5.358814E-6
792	21.320000E+0	5.358845E+0	5.358845E-3	186.607392E-3	5.358845E-6
793	21.347000E+0	5.360802E+0	5.360802E-3	186.539247E-3	5.360802E-6
794	21.373000E+0	5.363952E+0	5.363952E-3	186.429694E-3	5.363952E-6
795	21.400000E+0	5.364350E+0	5.364350E-3	186.415874E-3	5.364350E-6
796	21.426000E+0	5.363402E+0	5.363402E-3	186.448826E-3	5.363402E-6
797	21.452000E+0	5.363188E+0	5.363188E-3	186.456273E-3	5.363188E-6
798	21.479000E+0	5.363616E+0	5.363616E-3	186.441380E-3	5.363616E-6
799	21.505000E+0	5.364870E+0	5.364870E-3	186.397800E-3	5.364870E-6
800	21.531000E+0	5.365359E+0	5.365359E-3	186.380814E-3	5.365359E-6
801	21.558000E+0	5.365788E+0	5.365788E-3	186.365933E-3	5.365788E-6
802	21.584000E+0	5.367684E+0	5.367684E-3	186.300098E-3	5.367684E-6
803	21.611000E+0	5.368938E+0	5.368938E-3	186.256583E-3	5.368938E-6
804	21.637000E+0	5.368448E+0	5.368448E-3	186.273563E-3	5.368448E-6
805	21.663000E+0	5.367072E+0	5.367072E-3	186.321321E-3	5.367072E-6
806	21.689000E+0	5.365818E+0	5.365818E-3	186.364865E-3	5.365818E-6
807	21.716000E+0	5.364778E+0	5.364778E-3	186.400987E-3	5.364778E-6
808	21.742000E+0	5.363800E+0	5.363800E-3	186.435003E-3	5.363800E-6
809	21.769000E+0	5.362240E+0	5.362240E-3	186.489240E-3	5.362240E-6
810	21.795000E+0	5.360465E+0	5.360465E-3	186.550963E-3	5.360465E-6
811	21.821000E+0	5.360038E+0	5.360038E-3	186.565857E-3	5.360038E-6
812	21.847000E+0	5.361230E+0	5.361230E-3	186.524357E-3	5.361230E-6
813	21.874000E+0	5.364564E+0	5.364564E-3	186.408430E-3	5.364564E-6
814	21.900000E+0	5.368724E+0	5.368724E-3	186.264015E-3	5.368724E-6
815	21.927000E+0	5.371232E+0	5.371232E-3	186.177040E-3	5.371232E-6
816	21.953000E+0	5.371446E+0	5.371446E-3	186.169616E-3	5.371446E-6
817	21.979000E+0	5.369427E+0	5.369427E-3	186.239607E-3	5.369427E-6
818	22.006000E+0	5.366521E+0	5.366521E-3	186.340447E-3	5.366521E-6
819	22.032000E+0	5.363494E+0	5.363494E-3	186.445637E-3	5.363494E-6
820	22.058000E+0	5.360802E+0	5.360802E-3	186.539247E-3	5.360802E-6
821	22.084000E+0	5.359395E+0	5.359395E-3	186.588211E-3	5.359395E-6
822	22.111000E+0	5.358111E+0	5.358111E-3	186.632951E-3	5.358111E-6
823	22.137000E+0	5.356642E+0	5.356642E-3	186.684106E-3	5.356642E-6
824	22.164000E+0	5.355939E+0	5.355939E-3	186.708614E-3	5.355939E-6
825	22.190000E+0	5.356153E+0	5.356153E-3	186.701164E-3	5.356153E-6
826	22.216000E+0	5.357530E+0	5.357530E-3	186.653195E-3	5.357530E-6
827	22.242000E+0	5.359242E+0	5.359242E-3	186.593545E-3	5.359242E-6
828	22.269000E+0	5.359273E+0	5.359273E-3	186.592475E-3	5.359273E-6
829	22.295000E+0	5.358386E+0	5.358386E-3	186.623365E-3	5.358386E-6
830	22.322000E+0	5.357591E+0	5.357591E-3	186.651070E-3	5.357591E-6
831	22.348000E+0	5.354746E+0	5.354746E-3	186.750213E-3	5.354746E-6
832	22.374000E+0	5.351443E+0	5.351443E-3	186.865492E-3	5.351443E-6
833	22.401000E+0	5.351290E+0	5.351290E-3	186.870825E-3	5.351290E-6
834	22.427000E+0	5.352361E+0	5.352361E-3	186.833449E-3	5.352361E-6
835	22.453000E+0	5.352391E+0	5.352391E-3	186.832392E-3	5.352391E-6
836	22.480000E+0	5.351688E+0	5.351688E-3	186.856940E-3	5.351688E-6
837	22.506000E+0	5.350709E+0	5.350709E-3	186.891122E-3	5.350709E-6
838	22.533000E+0	5.350586E+0	5.350586E-3	186.895400E-3	5.350586E-6
839	22.559000E+0	5.350648E+0	5.350648E-3	186.893252E-3	5.350648E-6
840	22.585000E+0	5.349883E+0	5.349883E-3	186.919964E-3	5.349883E-6
841	22.611000E+0	5.349149E+0	5.349149E-3	186.945624E-3	5.349149E-6
842	22.638000E+0	5.348476E+0	5.348476E-3	186.969144E-3	5.348476E-6
843	22.664000E+0	5.346763E+0	5.346763E-3	187.029035E-3	5.346763E-6
844	22.691000E+0	5.344439E+0	5.344439E-3	187.110384E-3	5.344439E-6
845	22.717000E+0	5.343062E+0	5.343062E-3	187.158587E-3	5.343062E-6
846	22.743000E+0	5.341962E+0	5.341962E-3	187.197156E-3	5.341962E-6
847	22.770000E+0	5.340646E+0	5.340646E-3	187.243249E-3	5.340646E-6
848	22.796000E+0	5.339698E+0	5.339698E-3	187.276495E-3	5.339698E-6
849	22.823000E+0	5.338566E+0	5.338566E-3	187.316206E-3	5.338566E-6
850	22.849000E+0	5.337985E+0	5.337985E-3	187.336599E-3	5.337985E-6
851	22.875000E+0	5.337802E+0	5.337802E-3	187.343038E-3	5.337802E-6
852	22.901000E+0	5.336487E+0	5.336487E-3	187.389204E-3	5.336487E-6
853	22.934000E+0	5.334743E+0	5.334743E-3	187.450444E-3	5.334743E-6
854	22.967000E+0	5.333122E+0	5.333122E-3	187.507418E-3	5.333122E-6
855	22.999000E+0	5.331624E+0	5.331624E-3	187.560119E-3	5.331624E-6
856	23.031000E+0	5.329850E+0	5.329850E-3	187.622553E-3	5.329850E-6
857	23.064000E+0	5.327862E+0	5.327862E-3	187.692558E-3	5.327862E-6
858	23.096000E+0	5.326914E+0	5.326914E-3	187.725963E-3	5.326914E-6
859	23.129000E+0	5.327984E+0	5.327984E-3	187.688260E-3	5.327984E-6
860	23.161000E+0	5.329360E+0	5.329360E-3	187.639783E-3	5.329360E-6
861	23.194000E+0	5.328443E+0	5.328443E-3	187.672087E-3	5.328443E-6
862	23.226000E+0	5.326149E+0	5.326149E-3	187.752913E-3	5.326149E-6
863	23.254000E+0	5.324069E+0	5.324069E-3	187.826268E-3	5.324069E-6
864	23.281000E+0	5.322265E+0	5.322265E-3	187.889948E-3	5.322265E-6
865	23.307000E+0	5.320919E+0	5.320919E-3	187.937469E-3	5.320919E-6
866	23.334000E+0	5.321806E+0	5.321806E-3	187.906142E-3	5.321806E-6
867	23.360000E+0	5.325445E+0	5.325445E-3	187.777719E-3	5.325445E-6
868	23.386000E+0	5.328810E+0	5.328810E-3	187.659164E-3	5.328810E-6
869	23.413000E+0	5.330859E+0	5.330859E-3	187.587037E-3	5.330859E-6
870	23.439000E+0	5.332327E+0	5.332327E-3	187.535386E-3	5.332327E-6
871	23.465000E+0	5.332235E+0	5.332235E-3	187.538612E-3	5.332235E-6
872	23.492000E+0	5.331501E+0	5.331501E-3	187.564427E-3	5.331501E-6
873	23.518000E+0	5.331501E+0	5.331501E-3	187.564427E-3	5.331501E-6
874	23.544000E+0	5.331746E+0	5.331746E-3	187.555827E-3	5.331746E-6
875	23.570000E+0	5.331471E+0	5.331471E-3	187.565509E-3	5.331471E-6
876	23.597000E+0	5.330094E+0	5.330094E-3	187.613947E-3	5.330094E-6
877	23.623000E+0	5.327556E+0	5.327556E-3	187.703336E-3	5.327556E-6
878	23.650000E+0	5.325139E+0	5.325140E-3	187.788508E-3	5.325140E-6
879	23.676000E+0	5.323946E+0	5.323946E-3	187.830588E-3	5.323946E-6
880	23.702000E+0	5.323519E+0	5.323519E-3	187.845688E-3	5.323519E-6
881	23.729000E+0	5.324803E+0	5.324803E-3	187.800365E-3	5.324803E-6
882	23.755000E+0	5.327005E+0	5.327005E-3	187.722731E-3	5.327005E-6
883	23.781000E+0	5.326730E+0	5.326730E-3	187.732446E-3	5.326730E-6
884	23.808000E+0	5.324619E+0	5.324619E-3	187.806852E-3	5.324619E-6
885	23.834000E+0	5.322754E+0	5.322754E-3	187.872672E-3	5.322754E-6
886	23.861000E+0	5.321347E+0	5.321347E-3	187.922355E-3	5.321347E-6
887	23.887000E+0	5.321500E+0	5.321500E-3	187.916945E-3	5.321500E-6
888	23.913000E+0	5.322631E+0	5.322631E-3	187.876995E-3	5.322631E-6
889	23.939000E+0	5.323213E+0	5.323213E-3	187.856484E-3	5.323213E-6
890	23.966000E+0	5.323519E+0	5.323519E-3	187.845688E-3	5.323519E-6
891	23.992000E+0	5.322815E+0	5.322815E-3	187.870519E-3	5.322815E-6
892	24.019000E+0	5.322326E+0	5.322326E-3	187.887794E-3	5.322326E-6
893	24.045000E+0	5.323519E+0	5.323519E-3	187.845688E-3	5.323519E-6
894	24.071000E+0	5.324956E+0	5.324956E-3	187.794978E-3	5.324956E-6
895	24.097000E+0	5.326485E+0	5.326485E-3	187.741062E-3	5.326485E-6
896	24.124000E+0	5.328626E+0	5.328626E-3	187.665625E-3	5.328626E-6
897	24.150000E+0	5.330462E+0	5.330462E-3	187.601016E-3	5.330462E-6
898	24.177000E+0	5.331226E+0	5.331226E-3	187.574110E-3	5.331226E-6
899	24.203000E+0	5.332052E+0	5.332052E-3	187.545065E-3	5.332052E-6
900	24.229000E+0	5.333000E+0	5.333000E-3	187.511724E-3	5.333000E-6
901	24.256000E+0	5.332664E+0	5.332664E-3	187.523546E-3	5.332664E-6
902	24.282000E+0	5.331562E+0	5.331562E-3	187.562281E-3	5.331562E-6
903	24.308000E+0	5.330553E+0	5.330553E-3	187.597787E-3	5.330553E-6
904	24.334000E+0	5.329911E+0	5.329911E-3	187.620405E-3	5.329911E-6
905	24.361000E+0	5.329850E+0	5.329850E-3	187.622553E-3	5.329850E-6
906	24.387000E+0	5.330308E+0	5.330308E-3	187.606408E-3	5.330308E-6
907	24.414000E+0	5.330859E+0	5.330859E-3	187.587021E-3	5.330859E-6
908	24.440000E+0	5.330339E+0	5.330339E-3	187.605326E-3	5.330339E-6
909	24.466000E+0	5.328259E+0	5.328259E-3	187.678549E-3	5.328259E-6
910	24.492000E+0	5.326914E+0	5.326914E-3	187.725963E-3	5.326914E-6
911	24.519000E+0	5.327862E+0	5.327862E-3	187.692558E-3	5.327862E-6
912	24.545000E+0	5.328626E+0	5.328626E-3	187.665625E-3	5.328626E-6
913	24.572000E+0	5.326883E+0	5.326883E-3	187.727046E-3	5.326883E-6
914	24.598000E+0	5.324252E+0	5.324252E-3	187.819795E-3	5.324252E-6
915	24.624000E+0	5.323733E+0	5.323733E-3	187.838130E-3	5.323733E-6
916	24.651000E+0	5.324130E+0	5.324130E-3	187.824100E-3	5.324130E-6
917	24.677000E+0	5.323121E+0	5.323121E-3	187.859721E-3	5.323121E-6
918	24.703000E+0	5.321531E+0	5.321531E-3	187.915859E-3	5.321531E-6
919	24.730000E+0	5.319328E+0	5.319328E-3	187.993670E-3	5.319328E-6
920	24.756000E+0	5.316515E+0	5.316515E-3	188.093157E-3	5.316515E-6
921	24.783000E+0	5.315291E+0	5.315291E-3	188.136446E-3	5.315291E-6
922	24.809000E+0	5.315352E+0	5.315352E-3	188.134287E-3	5.315352E-6
923	24.835000E+0	5.314343E+0	5.314343E-3	188.170026E-3	5.314343E-6
924	24.861000E+0	5.312477E+0	5.312477E-3	188.236101E-3	5.312477E-6
925	24.888000E+0	5.311437E+0	5.311437E-3	188.272952E-3	5.311437E-6
926	24.914000E+0	5.311559E+0	5.311559E-3	188.268627E-3	5.311559E-6
927	24.941000E+0	5.312844E+0	5.312844E-3	188.223100E-3	5.312844E-6
928	24.967000E+0	5.314526E+0	5.314526E-3	188.163530E-3	5.314526E-6
929	24.993000E+0	5.315658E+0	5.315658E-3	188.123459E-3	5.315658E-6
930	25.019000E+0	5.316545E+0	5.316545E-3	188.092086E-3	5.316545E-6
931	25.046000E+0	5.316912E+0	5.316912E-3	188.079088E-3	5.316912E-6
932	25.072000E+0	5.317554E+0	5.317554E-3	188.056376E-3	5.317554E-6
933	25.098000E+0	5.319390E+0	5.319390E-3	187.991498E-3	5.319390E-6
934	25.125000E+0	5.322112E+0	5.322112E-3	187.895340E-3	5.322112E-6
935	25.151000E+0	5.324589E+0	5.324589E-3	187.807920E-3	5.324589E-6
936	25.178000E+0	5.325690E+0	5.325690E-3	187.769100E-3	5.325690E-6
937	25.204000E+0	5.325568E+0	5.325568E-3	187.773401E-3	5.325568E-6
938	25.230000E+0	5.323855E+0	5.323855E-3	187.833825E-3	5.323855E-6
939	25.256000E+0	5.321867E+0	5.321867E-3	187.903988E-3	5.321867E-6
940	25.283000E+0	5.321500E+0	5.321500E-3	187.916945E-3	5.321500E-6
941	25.309000E+0	5.322142E+0	5.322142E-3	187.894271E-3	5.322142E-6
942	25.336000E+0	5.321744E+0	5.321744E-3	187.908312E-3	5.321744E-6
943	25.362000E+0	5.319236E+0	5.319236E-3	187.996912E-3	5.319236E-6
944	25.388000E+0	5.316423E+0	5.316423E-3	188.096402E-3	5.316423E-6
945	25.414000E+0	5.314526E+0	5.314526E-3	188.163530E-3	5.314526E-6
946	25.441000E+0	5.312232E+0	5.312232E-3	188.244780E-3	5.312232E-6
947	25.467000E+0	5.309357E+0	5.309357E-3	188.346713E-3	5.309357E-6
948	25.494000E+0	5.307308E+0	5.307308E-3	188.419426E-3	5.307308E-6
949	25.520000E+0	5.306115E+0	5.306115E-3	188.461790E-3	5.306115E-6
950	25.546000E+0	5.305534E+0	5.305534E-3	188.482433E-3	5.305534E-6
951	25.573000E+0	5.305993E+0	5.305993E-3	188.466140E-3	5.305993E-6
952	25.599000E+0	5.307308E+0	5.307308E-3	188.419426E-3	5.307308E-6
953	25.626000E+0	5.307889E+0	5.307889E-3	188.398813E-3	5.307889E-6
954	25.652000E+0	5.306941E+0	5.306941E-3	188.432470E-3	5.306941E-6
955	25.684000E+0	5.306605E+0	5.306605E-3	188.444409E-3	5.306605E-6
956	25.717000E+0	5.307002E+0	5.307002E-3	188.430288E-3	5.307002E-6
957	25.749000E+0	5.306758E+0	5.306758E-3	188.438985E-3	5.306758E-6
958	25.782000E+0	5.307278E+0	5.307278E-3	188.420517E-3	5.307278E-6
959	25.814000E+0	5.308807E+0	5.308807E-3	188.366241E-3	5.308807E-6
960	25.847000E+0	5.309388E+0	5.309388E-3	188.345623E-3	5.309388E-6
961	25.879000E+0	5.308746E+0	5.308746E-3	188.368406E-3	5.308746E-6
962	25.912000E+0	5.309296E+0	5.309296E-3	188.348877E-3	5.309296E-6
963	25.944000E+0	5.311988E+0	5.311988E-3	188.253443E-3	5.311988E-6
964	25.977000E+0	5.313915E+0	5.313915E-3	188.185180E-3	5.313915E-6
965	26.004000E+0	5.313180E+0	5.313180E-3	188.211189E-3	5.313180E-6
966	26.031000E+0	5.311162E+0	5.311162E-3	188.282724E-3	5.311162E-6
967	26.057000E+0	5.309235E+0	5.309235E-3	188.351058E-3	5.309235E-6
968	26.084000E+0	5.308012E+0	5.308012E-3	188.394466E-3	5.308012E-6
969	26.110000E+0	5.308929E+0	5.308929E-3	188.361896E-3	5.308929E-6
970	26.136000E+0	5.311926E+0	5.311926E-3	188.255622E-3	5.311926E-6
971	26.162000E+0	5.314221E+0	5.314221E-3	188.174346E-3	5.314221E-6
972	26.189000E+0	5.314526E+0	5.314526E-3	188.163530E-3	5.314526E-6
973	26.215000E+0	5.314985E+0	5.314985E-3	188.147275E-3	5.314985E-6
974	26.242000E+0	5.316667E+0	5.316667E-3	188.087753E-3	5.316667E-6
975	26.268000E+0	5.318227E+0	5.318227E-3	188.032583E-3	5.318227E-6
976	26.294000E+0	5.319053E+0	5.319053E-3	188.003396E-3	5.319053E-6
977	26.321000E+0	5.318961E+0	5.318961E-3	188.006639E-3	5.318961E-6
978	26.347000E+0	5.318074E+0	5.318074E-3	188.037983E-3	5.318074E-6
979	26.373000E+0	5.316453E+0	5.316453E-3	188.095332E-3	5.316453E-6
980	26.400000E+0	5.314985E+0	5.314985E-3	188.147275E-3	5.314985E-6
981	26.426000E+0	5.314955E+0	5.314955E-3	188.148363E-3	5.314955E-6
982	26.453000E+0	5.314894E+0	5.314894E-3	188.150523E-3	5.314894E-6
983	26.479000E+0	5.313211E+0	5.313211E-3	188.210101E-3	5.313211E-6
984	26.505000E+0	5.310122E+0	5.310122E-3	188.319593E-3	5.310122E-6
985	26.531000E+0	5.307278E+0	5.307278E-3	188.420517E-3	5.307278E-6
986	26.558000E+0	5.305840E+0	5.305840E-3	188.471565E-3	5.305840E-6
987	26.584000E+0	5.305228E+0	5.305228E-3	188.493302E-3	5.305228E-6
988	26.611000E+0	5.305901E+0	5.305901E-3	188.469398E-3	5.305901E-6
989	26.637000E+0	5.306819E+0	5.306819E-3	188.436802E-3	5.306819E-6
990	26.663000E+0	5.306513E+0	5.306513E-3	188.447666E-3	5.306513E-6
991	26.689000E+0	5.306819E+0	5.306819E-3	188.436802E-3	5.306819E-6
992	26.716000E+0	5.308960E+0	5.308960E-3	188.360822E-3	5.308960E-6
993	26.742000E+0	5.311713E+0	5.311713E-3	188.263197E-3	5.311713E-6
994	26.768000E+0	5.313823E+0	5.313823E-3	188.188429E-3	5.313823E-6
995	26.795000E+0	5.314771E+0	5.314771E-3	188.154858E-3	5.314771E-6
996	26.821000E+0	5.315383E+0	5.315383E-3	188.133199E-3	5.315383E-6
997	26.848000E+0	5.317034E+0	5.317034E-3	188.074773E-3	5.317034E-6
998	26.874000E+0	5.318686E+0	5.318686E-3	188.016367E-3	5.318686E-6
999	26.900000E+0	5.318869E+0	5.318869E-3	188.009882E-3	5.318869E-6
