Points	Time	Resistance	Delta Voltage	Conductance	Power
0	0.000000E+0	5.723700E+0	5.723700E-3	174.712150E-3	5.723700E-6
1	26.000000E-3	5.751990E+0	5.751990E-3	173.852882E-3	5.751990E-6
2	53.000000E-3	5.772844E+0	5.772844E-3	173.224831E-3	5.772844E-6
3	79.000000E-3	5.794186E+0	5.794186E-3	172.586806E-3	5.794186E-6
4	105.000000E-3	5.825093E+0	5.825093E-3	171.671065E-3	5.825093E-6
5	132.000000E-3	5.859096E+0	5.859096E-3	170.674805E-3	5.859096E-6
6	158.000000E-3	5.890960E+0	5.890960E-3	169.751623E-3	5.890960E-6
7	185.000000E-3	5.924273E+0	5.924273E-3	168.797075E-3	5.924273E-6
8	211.000000E-3	5.961768E+0	5.961768E-3	167.735468E-3	5.961768E-6
9	238.000000E-3	5.998337E+0	5.998337E-3	166.712882E-3	5.998337E-6
10	264.000000E-3	6.030106E+0	6.030106E-3	165.834577E-3	6.030106E-6
11	291.000000E-3	6.058288E+0	6.058288E-3	165.063126E-3	6.058288E-6
12	317.000000E-3	6.087928E+0	6.087928E-3	164.259509E-3	6.087928E-6
13	343.000000E-3	6.119735E+0	6.119735E-3	163.405767E-3	6.119735E-6
14	370.000000E-3	6.151099E+0	6.151099E-3	162.572569E-3	6.151099E-6
15	396.000000E-3	6.182934E+0	6.182934E-3	161.735521E-3	6.182934E-6
16	422.000000E-3	6.213986E+0	6.213986E-3	160.927294E-3	6.213986E-6
17	449.000000E-3	6.247337E+0	6.247337E-3	160.068191E-3	6.247337E-6
18	475.000000E-3	6.287090E+0	6.287090E-3	159.056085E-3	6.287090E-6
19	502.000000E-3	6.316519E+0	6.316519E-3	158.315038E-3	6.316519E-6
20	528.000000E-3	6.341701E+0	6.341701E-3	157.686402E-3	6.341701E-6
21	554.000000E-3	6.378466E+0	6.378466E-3	156.777501E-3	6.378466E-6
22	581.000000E-3	6.414906E+0	6.414906E-3	155.886927E-3	6.414906E-6
23	607.000000E-3	6.451565E+0	6.451565E-3	155.001155E-3	6.451565E-6
24	633.000000E-3	6.489440E+0	6.489440E-3	154.096504E-3	6.489440E-6
25	660.000000E-3	6.528105E+0	6.528105E-3	153.183819E-3	6.528105E-6
26	686.000000E-3	6.560600E+0	6.560600E-3	152.425075E-3	6.560600E-6
27	713.000000E-3	6.576773E+0	6.576773E-3	152.050248E-3	6.576773E-6
28	739.000000E-3	6.599670E+0	6.599670E-3	151.522732E-3	6.599670E-6
29	765.000000E-3	6.612339E+0	6.612339E-3	151.232425E-3	6.612339E-6
30	791.000000E-3	6.638283E+0	6.638283E-3	150.641365E-3	6.638283E-6
31	817.000000E-3	6.656593E+0	6.656593E-3	150.226996E-3	6.656593E-6
32	844.000000E-3	6.680813E+0	6.680813E-3	149.682388E-3	6.680813E-6
33	871.000000E-3	6.705262E+0	6.705262E-3	149.136609E-3	6.705262E-6
34	897.000000E-3	6.733458E+0	6.733458E-3	148.512101E-3	6.733458E-6
35	923.000000E-3	6.762272E+0	6.762272E-3	147.879288E-3	6.762272E-6
36	949.000000E-3	6.790791E+0	6.790791E-3	147.258246E-3	6.790791E-6
37	976.000000E-3	6.809334E+0	6.809334E-3	146.857245E-3	6.809334E-6
38	1.002000E+0	6.823468E+0	6.823468E-3	146.553053E-3	6.823468E-6
39	1.029000E+0	6.843322E+0	6.843322E-3	146.127861E-3	6.843322E-6
40	1.055000E+0	6.875249E+0	6.875249E-3	145.449276E-3	6.875249E-6
41	1.081000E+0	6.904126E+0	6.904126E-3	144.840923E-3	6.904126E-6
42	1.108000E+0	6.927225E+0	6.927225E-3	144.357944E-3	6.927225E-6
43	1.141000E+0	6.943862E+0	6.943862E-3	144.012070E-3	6.943862E-6
44	1.173000E+0	6.965450E+0	6.965450E-3	143.565742E-3	6.965450E-6
45	1.206000E+0	6.984837E+0	6.984837E-3	143.167266E-3	6.984837E-6
46	1.234000E+0	7.000867E+0	7.000867E-3	142.839445E-3	7.000867E-6
47	1.261000E+0	7.010270E+0	7.010270E-3	142.647860E-3	7.010270E-6
48	1.287000E+0	7.016792E+0	7.016792E-3	142.515279E-3	7.016792E-6
49	1.314000E+0	7.023401E+0	7.023401E-3	142.381170E-3	7.023401E-6
50	1.340000E+0	7.029679E+0	7.029679E-3	142.254013E-3	7.029679E-6
51	1.366000E+0	7.042194E+0	7.042194E-3	142.001195E-3	7.042194E-6
52	1.393000E+0	7.062342E+0	7.062342E-3	141.596097E-3	7.062342E-6
53	1.419000E+0	7.081983E+0	7.081983E-3	141.203395E-3	7.081983E-6
54	1.445000E+0	7.092159E+0	7.092159E-3	141.000791E-3	7.092159E-6
55	1.471000E+0	7.099093E+0	7.099093E-3	140.863066E-3	7.099093E-6
56	1.498000E+0	7.107965E+0	7.107965E-3	140.687240E-3	7.107965E-6
57	1.524000E+0	7.115591E+0	7.115591E-3	140.536467E-3	7.115591E-6
58	1.551000E+0	7.118961E+0	7.118961E-3	140.469930E-3	7.118961E-6
59	1.577000E+0	7.123014E+0	7.123014E-3	140.390001E-3	7.123014E-6
60	1.603000E+0	7.132125E+0	7.132125E-3	140.210674E-3	7.132125E-6
61	1.629000E+0	7.144966E+0	7.144966E-3	139.958684E-3	7.144966E-6
62	1.656000E+0	7.156150E+0	7.156150E-3	139.739945E-3	7.156150E-6
63	1.682000E+0	7.164937E+0	7.164937E-3	139.568560E-3	7.164937E-6
64	1.709000E+0	7.174340E+0	7.174340E-3	139.385642E-3	7.174340E-6
65	1.735000E+0	7.183420E+0	7.183420E-3	139.209457E-3	7.183420E-6
66	1.761000E+0	7.193197E+0	7.193197E-3	139.020252E-3	7.193197E-6
67	1.788000E+0	7.200795E+0	7.200795E-3	138.873550E-3	7.200795E-6
68	1.814000E+0	7.201990E+0	7.201990E-3	138.850519E-3	7.201990E-6
69	1.840000E+0	7.213237E+0	7.213237E-3	138.634010E-3	7.213237E-6
70	1.867000E+0	7.228880E+0	7.228880E-3	138.334021E-3	7.228880E-6
71	1.893000E+0	7.233086E+0	7.233086E-3	138.253575E-3	7.233086E-6
72	1.920000E+0	7.237378E+0	7.237378E-3	138.171594E-3	7.237378E-6
73	1.946000E+0	7.241316E+0	7.241316E-3	138.096443E-3	7.241316E-6
74	1.972000E+0	7.244361E+0	7.244361E-3	138.038398E-3	7.244361E-6
75	1.998000E+0	7.246692E+0	7.246692E-3	137.993994E-3	7.246692E-6
76	2.025000E+0	7.248261E+0	7.248261E-3	137.964118E-3	7.248261E-6
77	2.051000E+0	7.248909E+0	7.248909E-3	137.951790E-3	7.248909E-6
78	2.078000E+0	7.249357E+0	7.249357E-3	137.943265E-3	7.249357E-6
79	2.104000E+0	7.250314E+0	7.250314E-3	137.925059E-3	7.250314E-6
80	2.130000E+0	7.251257E+0	7.251257E-3	137.907123E-3	7.251257E-6
81	2.156000E+0	7.251763E+0	7.251763E-3	137.897506E-3	7.251763E-6
82	2.183000E+0	7.252000E+0	7.252000E-3	137.892990E-3	7.252000E-6
83	2.209000E+0	7.252145E+0	7.252145E-3	137.890236E-3	7.252145E-6
84	2.235000E+0	7.252336E+0	7.252336E-3	137.886597E-3	7.252336E-6
85	2.262000E+0	7.252268E+0	7.252268E-3	137.887899E-3	7.252268E-6
86	2.288000E+0	7.252227E+0	7.252227E-3	137.888678E-3	7.252227E-6
87	2.315000E+0	7.252402E+0	7.252402E-3	137.885349E-3	7.252402E-6
88	2.341000E+0	7.252512E+0	7.252512E-3	137.883268E-3	7.252512E-6
89	2.367000E+0	7.252829E+0	7.252829E-3	137.877240E-3	7.252829E-6
90	2.393000E+0	7.253083E+0	7.253083E-3	137.872407E-3	7.253083E-6
91	2.420000E+0	7.253116E+0	7.253116E-3	137.871787E-3	7.253116E-6
92	2.446000E+0	7.253255E+0	7.253255E-3	137.869141E-3	7.253255E-6
93	2.473000E+0	7.253575E+0	7.253575E-3	137.863060E-3	7.253575E-6
94	2.499000E+0	7.254671E+0	7.254671E-3	137.842229E-3	7.254671E-6
95	2.525000E+0	7.255447E+0	7.255447E-3	137.827481E-3	7.255447E-6
96	2.551000E+0	7.255532E+0	7.255532E-3	137.825871E-3	7.255532E-6
97	2.578000E+0	7.257175E+0	7.257175E-3	137.794671E-3	7.257175E-6
98	2.604000E+0	7.258664E+0	7.258664E-3	137.766392E-3	7.258664E-6
99	2.631000E+0	7.258823E+0	7.258823E-3	137.763387E-3	7.258823E-6
100	2.657000E+0	7.258924E+0	7.258924E-3	137.761470E-3	7.258924E-6
101	2.683000E+0	7.258916E+0	7.258916E-3	137.761620E-3	7.258916E-6
102	2.710000E+0	7.258853E+0	7.258853E-3	137.762813E-3	7.258853E-6
103	2.736000E+0	7.258866E+0	7.258866E-3	137.762557E-3	7.258866E-6
104	2.762000E+0	7.259137E+0	7.259137E-3	137.757422E-3	7.259137E-6
105	2.788000E+0	7.259293E+0	7.259293E-3	137.754462E-3	7.259293E-6
106	2.815000E+0	7.259266E+0	7.259266E-3	137.754983E-3	7.259266E-6
107	2.841000E+0	7.259077E+0	7.259077E-3	137.758562E-3	7.259077E-6
108	2.868000E+0	7.259102E+0	7.259102E-3	137.758094E-3	7.259102E-6
109	2.894000E+0	7.259219E+0	7.259219E-3	137.755867E-3	7.259219E-6
110	2.920000E+0	7.259096E+0	7.259096E-3	137.758200E-3	7.259096E-6
111	2.946000E+0	7.259131E+0	7.259131E-3	137.757528E-3	7.259131E-6
112	2.973000E+0	7.259225E+0	7.259225E-3	137.755761E-3	7.259225E-6
113	2.999000E+0	7.259397E+0	7.259397E-3	137.752491E-3	7.259397E-6
114	3.026000E+0	7.259525E+0	7.259525E-3	137.750061E-3	7.259525E-6
115	3.052000E+0	7.259640E+0	7.259640E-3	137.747879E-3	7.259640E-6
116	3.078000E+0	7.259730E+0	7.259730E-3	137.746165E-3	7.259730E-6
117	3.105000E+0	7.259861E+0	7.259861E-3	137.743682E-3	7.259861E-6
118	3.131000E+0	7.259859E+0	7.259859E-3	137.743726E-3	7.259859E-6
119	3.157000E+0	7.260151E+0	7.260151E-3	137.738178E-3	7.260151E-6
120	3.184000E+0	7.260238E+0	7.260238E-3	137.736526E-3	7.260238E-6
121	3.210000E+0	7.260228E+0	7.260228E-3	137.736729E-3	7.260228E-6
122	3.237000E+0	7.260567E+0	7.260567E-3	137.730298E-3	7.260567E-6
123	3.263000E+0	7.260952E+0	7.260952E-3	137.722993E-3	7.260952E-6
124	3.289000E+0	7.261012E+0	7.261012E-3	137.721845E-3	7.261012E-6
125	3.315000E+0	7.260933E+0	7.260933E-3	137.723355E-3	7.260933E-6
126	3.342000E+0	7.260763E+0	7.260763E-3	137.726571E-3	7.260763E-6
127	3.368000E+0	7.260769E+0	7.260769E-3	137.726465E-3	7.260769E-6
128	3.395000E+0	7.260802E+0	7.260802E-3	137.725837E-3	7.260802E-6
129	3.421000E+0	7.260725E+0	7.260725E-3	137.727295E-3	7.260725E-6
130	3.447000E+0	7.260640E+0	7.260640E-3	137.728903E-3	7.260640E-6
131	3.473000E+0	7.260941E+0	7.260941E-3	137.723197E-3	7.260941E-6
132	3.500000E+0	7.261591E+0	7.261592E-3	137.710859E-3	7.261592E-6
133	3.526000E+0	7.261832E+0	7.261832E-3	137.706302E-3	7.261832E-6
134	3.553000E+0	7.261799E+0	7.261799E-3	137.706920E-3	7.261799E-6
135	3.579000E+0	7.261900E+0	7.261900E-3	137.705004E-3	7.261900E-6
136	3.605000E+0	7.261963E+0	7.261963E-3	137.703812E-3	7.261963E-6
137	3.632000E+0	7.261720E+0	7.261720E-3	137.708421E-3	7.261720E-6
138	3.658000E+0	7.261455E+0	7.261455E-3	137.713455E-3	7.261455E-6
139	3.691000E+0	7.261305E+0	7.261305E-3	137.716299E-3	7.261305E-6
140	3.723000E+0	7.260947E+0	7.260947E-3	137.723090E-3	7.260947E-6
141	3.755000E+0	7.260730E+0	7.260730E-3	137.727189E-3	7.260730E-6
142	3.788000E+0	7.260457E+0	7.260457E-3	137.732374E-3	7.260457E-6
143	3.821000E+0	7.260411E+0	7.260411E-3	137.733258E-3	7.260411E-6
144	3.854000E+0	7.260012E+0	7.260012E-3	137.740828E-3	7.260012E-6
145	3.886000E+0	7.259566E+0	7.259566E-3	137.749275E-3	7.259566E-6
146	3.919000E+0	7.259621E+0	7.259621E-3	137.748241E-3	7.259621E-6
147	3.952000E+0	7.259506E+0	7.259506E-3	137.750424E-3	7.259506E-6
148	3.982000E+0	7.259323E+0	7.259323E-3	137.753896E-3	7.259323E-6
149	4.008000E+0	7.258957E+0	7.258957E-3	137.760842E-3	7.258957E-6
150	4.035000E+0	7.259268E+0	7.259268E-3	137.754930E-3	7.259268E-6
151	4.061000E+0	7.259482E+0	7.259482E-3	137.750883E-3	7.259482E-6
152	4.088000E+0	7.259441E+0	7.259441E-3	137.751661E-3	7.259441E-6
153	4.114000E+0	7.259342E+0	7.259342E-3	137.753534E-3	7.259342E-6
154	4.140000E+0	7.258864E+0	7.258864E-3	137.762610E-3	7.258864E-6
155	4.166000E+0	7.258700E+0	7.258700E-3	137.765721E-3	7.258700E-6
156	4.193000E+0	7.258804E+0	7.258804E-3	137.763750E-3	7.258804E-6
157	4.219000E+0	7.259033E+0	7.259033E-3	137.759393E-3	7.259033E-6
158	4.246000E+0	7.259312E+0	7.259312E-3	137.754100E-3	7.259312E-6
159	4.272000E+0	7.259416E+0	7.259416E-3	137.752129E-3	7.259416E-6
160	4.298000E+0	7.259449E+0	7.259449E-3	137.751511E-3	7.259449E-6
161	4.325000E+0	7.259353E+0	7.259353E-3	137.753322E-3	7.259353E-6
162	4.351000E+0	7.259361E+0	7.259361E-3	137.753172E-3	7.259361E-6
163	4.377000E+0	7.259441E+0	7.259441E-3	137.751661E-3	7.259441E-6
164	4.404000E+0	7.259602E+0	7.259602E-3	137.748603E-3	7.259602E-6
165	4.430000E+0	7.259675E+0	7.259675E-3	137.747208E-3	7.259675E-6
166	4.457000E+0	7.259771E+0	7.259771E-3	137.745387E-3	7.259771E-6
167	4.483000E+0	7.259536E+0	7.259536E-3	137.749849E-3	7.259536E-6
168	4.509000E+0	7.259380E+0	7.259380E-3	137.752810E-3	7.259380E-6
169	4.535000E+0	7.259421E+0	7.259421E-3	137.752032E-3	7.259421E-6
170	4.562000E+0	7.259498E+0	7.259498E-3	137.750574E-3	7.259498E-6
171	4.588000E+0	7.259405E+0	7.259405E-3	137.752341E-3	7.259405E-6
172	4.615000E+0	7.259145E+0	7.259145E-3	137.757263E-3	7.259145E-6
173	4.641000E+0	7.259008E+0	7.259008E-3	137.759861E-3	7.259008E-6
174	4.667000E+0	7.259014E+0	7.259014E-3	137.759755E-3	7.259014E-6
175	4.693000E+0	7.259186E+0	7.259186E-3	137.756485E-3	7.259186E-6
176	4.720000E+0	7.259290E+0	7.259290E-3	137.754515E-3	7.259290E-6
177	4.746000E+0	7.259282E+0	7.259282E-3	137.754674E-3	7.259282E-6
178	4.772000E+0	7.259419E+0	7.259419E-3	137.752076E-3	7.259419E-6
179	4.799000E+0	7.259298E+0	7.259298E-3	137.754365E-3	7.259298E-6
180	4.825000E+0	7.259049E+0	7.259049E-3	137.759084E-3	7.259049E-6
181	4.852000E+0	7.258957E+0	7.258957E-3	137.760842E-3	7.258957E-6
182	4.878000E+0	7.258754E+0	7.258754E-3	137.764687E-3	7.258754E-6
183	4.904000E+0	7.258580E+0	7.258580E-3	137.768001E-3	7.258580E-6
184	4.930000E+0	7.258520E+0	7.258520E-3	137.769141E-3	7.258520E-6
185	4.957000E+0	7.258640E+0	7.258640E-3	137.766861E-3	7.258640E-6
186	4.983000E+0	7.258880E+0	7.258880E-3	137.762300E-3	7.258880E-6
187	5.010000E+0	7.259093E+0	7.259093E-3	137.758253E-3	7.259093E-6
188	5.036000E+0	7.259293E+0	7.259293E-3	137.754462E-3	7.259293E-6
189	5.062000E+0	7.259328E+0	7.259328E-3	137.753790E-3	7.259328E-6
190	5.088000E+0	7.259528E+0	7.259528E-3	137.750008E-3	7.259528E-6
191	5.115000E+0	7.259733E+0	7.259733E-3	137.746112E-3	7.259733E-6
192	5.141000E+0	7.260012E+0	7.260012E-3	137.740828E-3	7.260012E-6
193	5.168000E+0	7.260050E+0	7.260050E-3	137.740095E-3	7.260050E-6
194	5.194000E+0	7.260307E+0	7.260307E-3	137.735227E-3	7.260307E-6
195	5.220000E+0	7.260665E+0	7.260665E-3	137.728434E-3	7.260665E-6
196	5.247000E+0	7.260646E+0	7.260646E-3	137.728797E-3	7.260646E-6
197	5.273000E+0	7.260769E+0	7.260769E-3	137.726465E-3	7.260769E-6
198	5.299000E+0	7.261080E+0	7.261080E-3	137.720556E-3	7.261080E-6
199	5.325000E+0	7.261408E+0	7.261408E-3	137.714329E-3	7.261408E-6
200	5.352000E+0	7.261182E+0	7.261182E-3	137.718630E-3	7.261182E-6
201	5.378000E+0	7.261143E+0	7.261143E-3	137.719363E-3	7.261143E-6
202	5.405000E+0	7.261151E+0	7.261151E-3	137.719204E-3	7.261151E-6
203	5.431000E+0	7.261195E+0	7.261195E-3	137.718374E-3	7.261195E-6
204	5.457000E+0	7.261411E+0	7.261411E-3	137.714276E-3	7.261411E-6
205	5.483000E+0	7.261627E+0	7.261627E-3	137.710187E-3	7.261627E-6
206	5.510000E+0	7.261884E+0	7.261884E-3	137.705313E-3	7.261884E-6
207	5.536000E+0	7.261873E+0	7.261873E-3	137.705516E-3	7.261873E-6
208	5.563000E+0	7.261728E+0	7.261728E-3	137.708262E-3	7.261728E-6
209	5.589000E+0	7.261919E+0	7.261919E-3	137.704642E-3	7.261919E-6
210	5.615000E+0	7.261952E+0	7.261952E-3	137.704015E-3	7.261952E-6
211	5.642000E+0	7.261832E+0	7.261832E-3	137.706293E-3	7.261832E-6
212	5.668000E+0	7.261897E+0	7.261897E-3	137.705057E-3	7.261897E-6
213	5.694000E+0	7.262212E+0	7.262212E-3	137.699097E-3	7.262212E-6
214	5.721000E+0	7.262308E+0	7.262308E-3	137.697278E-3	7.262308E-6
215	5.747000E+0	7.262223E+0	7.262223E-3	137.698885E-3	7.262223E-6
216	5.774000E+0	7.262220E+0	7.262220E-3	137.698938E-3	7.262220E-6
217	5.800000E+0	7.262272E+0	7.262272E-3	137.697949E-3	7.262272E-6
218	5.826000E+0	7.262425E+0	7.262425E-3	137.695053E-3	7.262425E-6
219	5.852000E+0	7.262425E+0	7.262425E-3	137.695053E-3	7.262425E-6
220	5.879000E+0	7.262633E+0	7.262633E-3	137.691115E-3	7.262633E-6
221	5.905000E+0	7.262821E+0	7.262821E-3	137.687540E-3	7.262821E-6
222	5.931000E+0	7.263027E+0	7.263027E-3	137.683647E-3	7.263027E-6
223	5.958000E+0	7.262961E+0	7.262961E-3	137.684892E-3	7.262961E-6
224	5.984000E+0	7.263117E+0	7.263117E-3	137.681943E-3	7.263117E-6
225	6.010000E+0	7.261963E+0	7.261963E-3	137.703812E-3	7.261963E-6
226	6.037000E+0	7.260988E+0	7.260988E-3	137.722313E-3	7.260988E-6
227	6.063000E+0	7.261080E+0	7.261080E-3	137.720556E-3	7.261080E-6
228	6.089000E+0	7.261479E+0	7.261479E-3	137.712987E-3	7.261479E-6
229	6.116000E+0	7.261293E+0	7.261293E-3	137.716511E-3	7.261293E-6
230	6.142000E+0	7.260509E+0	7.260509E-3	137.731385E-3	7.260509E-6
231	6.169000E+0	7.260296E+0	7.260296E-3	137.735431E-3	7.260296E-6
232	6.195000E+0	7.259878E+0	7.259878E-3	137.743364E-3	7.259878E-6
233	6.221000E+0	7.259208E+0	7.259208E-3	137.756070E-3	7.259208E-6
234	6.248000E+0	7.259544E+0	7.259544E-3	137.749690E-3	7.259544E-6
235	6.274000E+0	7.259552E+0	7.259552E-3	137.749540E-3	7.259552E-6
236	6.301000E+0	7.259889E+0	7.259889E-3	137.743161E-3	7.259889E-6
237	6.327000E+0	7.259347E+0	7.259347E-3	137.753428E-3	7.259347E-6
238	6.353000E+0	7.258782E+0	7.258782E-3	137.764165E-3	7.258782E-6
239	6.386000E+0	7.256622E+0	7.256622E-3	137.805158E-3	7.256622E-6
240	6.418000E+0	7.253807E+0	7.253807E-3	137.858644E-3	7.253807E-6
241	6.451000E+0	7.248865E+0	7.248865E-3	137.952623E-3	7.248865E-6
242	6.484000E+0	7.242396E+0	7.242396E-3	138.075861E-3	7.242396E-6
243	6.517000E+0	7.239203E+0	7.239203E-3	138.136745E-3	7.239203E-6
244	6.549000E+0	7.238539E+0	7.238539E-3	138.149426E-3	7.238539E-6
245	6.582000E+0	7.234795E+0	7.234795E-3	138.220926E-3	7.234795E-6
246	6.615000E+0	7.232955E+0	7.232955E-3	138.256076E-3	7.232955E-6
247	6.648000E+0	7.230298E+0	7.230298E-3	138.306883E-3	7.230298E-6
248	6.680000E+0	7.225004E+0	7.225004E-3	138.408227E-3	7.225004E-6
249	6.707000E+0	7.223356E+0	7.223356E-3	138.439814E-3	7.223356E-6
250	6.734000E+0	7.223681E+0	7.223681E-3	138.433575E-3	7.223681E-6
251	6.760000E+0	7.222076E+0	7.222076E-3	138.464334E-3	7.222076E-6
252	6.787000E+0	7.217015E+0	7.217015E-3	138.561448E-3	7.217015E-6
253	6.813000E+0	7.215517E+0	7.215517E-3	138.590215E-3	7.215517E-6
254	6.839000E+0	7.213674E+0	7.213674E-3	138.625606E-3	7.213674E-6
255	6.865000E+0	7.209859E+0	7.209859E-3	138.698970E-3	7.209859E-6
256	6.891000E+0	7.246665E+0	7.246665E-3	137.994508E-3	7.246665E-6
257	6.918000E+0	7.267077E+0	7.267077E-3	137.606900E-3	7.267077E-6
258	6.944000E+0	7.255401E+0	7.255401E-3	137.828366E-3	7.255401E-6
259	6.971000E+0	7.255231E+0	7.255231E-3	137.831586E-3	7.255231E-6
260	6.997000E+0	7.250907E+0	7.250907E-3	137.913774E-3	7.250907E-6
261	7.023000E+0	7.249273E+0	7.249273E-3	137.944869E-3	7.249273E-6
262	7.050000E+0	7.244593E+0	7.244593E-3	138.033971E-3	7.244593E-6
263	7.076000E+0	7.242937E+0	7.242937E-3	138.065537E-3	7.242937E-6
264	7.102000E+0	7.241264E+0	7.241264E-3	138.097437E-3	7.241264E-6
265	7.129000E+0	7.240512E+0	7.240512E-3	138.111772E-3	7.240512E-6
266	7.155000E+0	7.240745E+0	7.240745E-3	138.107340E-3	7.240745E-6
267	7.182000E+0	7.242437E+0	7.242437E-3	138.075071E-3	7.242437E-6
268	7.208000E+0	7.247223E+0	7.247223E-3	137.983895E-3	7.247223E-6
269	7.234000E+0	7.242997E+0	7.242997E-3	138.064392E-3	7.242997E-6
270	7.260000E+0	7.234530E+0	7.234530E-3	138.225988E-3	7.234530E-6
271	7.287000E+0	7.234018E+0	7.234018E-3	138.235758E-3	7.234018E-6
272	7.313000E+0	7.246477E+0	7.246477E-3	137.998100E-3	7.246477E-6
273	7.340000E+0	7.240800E+0	7.240800E-3	138.106292E-3	7.240800E-6
274	7.366000E+0	7.220839E+0	7.220839E-3	138.488068E-3	7.220839E-6
275	7.392000E+0	7.217643E+0	7.217643E-3	138.549379E-3	7.217643E-6
276	7.418000E+0	7.220964E+0	7.220964E-3	138.485666E-3	7.220964E-6
277	7.445000E+0	7.221320E+0	7.221320E-3	138.478843E-3	7.221320E-6
278	7.471000E+0	7.210670E+0	7.210671E-3	138.683358E-3	7.210671E-6
279	7.498000E+0	7.203876E+0	7.203876E-3	138.814169E-3	7.203876E-6
280	7.524000E+0	7.201700E+0	7.201700E-3	138.856103E-3	7.201700E-6
281	7.550000E+0	7.201634E+0	7.201634E-3	138.857369E-3	7.201634E-6
282	7.577000E+0	7.202818E+0	7.202818E-3	138.834549E-3	7.202818E-6
283	7.603000E+0	7.203515E+0	7.203515E-3	138.821114E-3	7.203515E-6
284	7.629000E+0	7.203605E+0	7.203605E-3	138.819382E-3	7.203605E-6
285	7.656000E+0	7.203914E+0	7.203914E-3	138.813424E-3	7.203914E-6
286	7.682000E+0	7.204168E+0	7.204168E-3	138.808534E-3	7.204168E-6
287	7.709000E+0	7.206926E+0	7.206926E-3	138.755412E-3	7.206926E-6
288	7.735000E+0	7.211464E+0	7.211464E-3	138.668107E-3	7.211464E-6
289	7.761000E+0	7.215640E+0	7.215640E-3	138.587853E-3	7.215640E-6
290	7.787000E+0	7.237183E+0	7.237183E-3	138.175302E-3	7.237183E-6
291	7.814000E+0	7.245255E+0	7.245255E-3	138.021373E-3	7.245255E-6
292	7.840000E+0	7.237984E+0	7.237984E-3	138.160012E-3	7.237984E-6
293	7.867000E+0	7.235379E+0	7.235379E-3	138.209753E-3	7.235379E-6
294	7.893000E+0	7.228795E+0	7.228795E-3	138.335643E-3	7.228795E-6
295	7.919000E+0	7.234669E+0	7.234669E-3	138.223328E-3	7.234669E-6
296	7.945000E+0	7.241240E+0	7.241240E-3	138.097899E-3	7.241240E-6
297	7.972000E+0	7.247329E+0	7.247329E-3	137.981865E-3	7.247329E-6
298	7.998000E+0	7.252003E+0	7.252003E-3	137.892937E-3	7.252003E-6
299	8.025000E+0	7.253580E+0	7.253580E-3	137.862954E-3	7.253580E-6
300	8.051000E+0	7.253017E+0	7.253017E-3	137.873655E-3	7.253017E-6
301	8.077000E+0	7.254441E+0	7.254441E-3	137.846591E-3	7.254441E-6
302	8.104000E+0	7.259405E+0	7.259405E-3	137.752341E-3	7.259405E-6
303	8.130000E+0	7.260310E+0	7.260310E-3	137.735174E-3	7.260310E-6
304	8.156000E+0	7.261307E+0	7.261307E-3	137.716246E-3	7.261307E-6
305	8.182000E+0	7.264904E+0	7.264904E-3	137.648064E-3	7.264904E-6
306	8.209000E+0	7.227887E+0	7.227887E-3	138.353013E-3	7.227887E-6
307	8.235000E+0	7.207248E+0	7.207248E-3	138.749208E-3	7.207248E-6
308	8.262000E+0	7.218974E+0	7.218974E-3	138.523837E-3	7.218974E-6
309	8.288000E+0	7.218903E+0	7.218903E-3	138.525195E-3	7.218903E-6
310	8.314000E+0	7.223126E+0	7.223126E-3	138.444214E-3	7.223126E-6
311	8.340000E+0	7.225061E+0	7.225061E-3	138.407130E-3	7.225061E-6
312	8.367000E+0	7.229962E+0	7.229962E-3	138.313315E-3	7.229962E-6
313	8.393000E+0	7.231419E+0	7.231419E-3	138.285446E-3	7.231419E-6
314	8.420000E+0	7.232695E+0	7.232695E-3	138.261043E-3	7.232695E-6
315	8.446000E+0	7.233327E+0	7.233327E-3	138.248973E-3	7.233327E-6
316	8.472000E+0	7.233198E+0	7.233198E-3	138.251429E-3	7.233198E-6
317	8.499000E+0	7.231536E+0	7.231536E-3	138.283202E-3	7.231536E-6
318	8.525000E+0	7.226554E+0	7.226554E-3	138.378546E-3	7.226554E-6
319	8.551000E+0	7.230634E+0	7.230634E-3	138.300452E-3	7.230634E-6
320	8.578000E+0	7.238763E+0	7.238763E-3	138.145143E-3	7.238763E-6
321	8.604000E+0	7.238987E+0	7.238987E-3	138.140868E-3	7.238987E-6
322	8.631000E+0	7.226319E+0	7.226319E-3	138.383049E-3	7.226319E-6
323	8.657000E+0	7.232094E+0	7.232094E-3	138.272536E-3	7.232094E-6
324	8.683000E+0	7.251990E+0	7.251990E-3	137.893194E-3	7.251990E-6
325	8.709000E+0	7.256106E+0	7.256106E-3	137.814966E-3	7.256106E-6
326	8.736000E+0	7.253493E+0	7.253493E-3	137.864618E-3	7.253493E-6
327	8.762000E+0	7.253003E+0	7.253003E-3	137.873920E-3	7.253003E-6
328	8.789000E+0	7.262999E+0	7.262999E-3	137.684168E-3	7.262999E-6
329	8.815000E+0	7.269786E+0	7.269786E-3	137.555636E-3	7.269786E-6
330	8.841000E+0	7.272940E+0	7.272940E-3	137.495976E-3	7.272940E-6
331	8.867000E+0	7.273320E+0	7.273320E-3	137.488793E-3	7.273320E-6
332	8.894000E+0	7.272451E+0	7.272451E-3	137.505229E-3	7.272451E-6
333	8.921000E+0	7.272379E+0	7.272379E-3	137.506576E-3	7.272379E-6
334	8.947000E+0	7.272005E+0	7.272005E-3	137.513655E-3	7.272005E-6
335	8.973000E+0	7.271584E+0	7.271584E-3	137.521616E-3	7.271584E-6
336	8.999000E+0	7.270710E+0	7.270710E-3	137.538157E-3	7.270710E-6
337	9.026000E+0	7.268389E+0	7.268389E-3	137.582065E-3	7.268389E-6
338	9.052000E+0	7.264724E+0	7.264724E-3	137.651479E-3	7.264724E-6
339	9.085000E+0	7.262840E+0	7.262840E-3	137.687178E-3	7.262840E-6
340	9.118000E+0	7.243369E+0	7.243369E-3	138.057309E-3	7.243369E-6
341	9.150000E+0	7.239777E+0	7.239777E-3	138.125799E-3	7.239777E-6
342	9.183000E+0	7.253184E+0	7.253184E-3	137.870486E-3	7.253184E-6
343	9.216000E+0	7.258295E+0	7.258295E-3	137.773401E-3	7.258295E-6
344	9.248000E+0	7.264901E+0	7.264901E-3	137.648117E-3	7.264901E-6
345	9.281000E+0	7.262283E+0	7.262283E-3	137.697746E-3	7.262283E-6
346	9.314000E+0	7.257035E+0	7.257035E-3	137.797324E-3	7.257035E-6
347	9.347000E+0	7.253170E+0	7.253170E-3	137.870743E-3	7.253170E-6
348	9.380000E+0	7.253542E+0	7.253542E-3	137.863679E-3	7.253542E-6
349	9.406000E+0	7.253329E+0	7.253329E-3	137.867733E-3	7.253329E-6
350	9.432000E+0	7.253676E+0	7.253676E-3	137.861139E-3	7.253676E-6
351	9.459000E+0	7.253859E+0	7.253859E-3	137.857653E-3	7.253859E-6
352	9.485000E+0	7.254140E+0	7.254140E-3	137.852308E-3	7.254140E-6
353	9.511000E+0	7.255023E+0	7.255023E-3	137.835532E-3	7.255023E-6
354	9.538000E+0	7.255677E+0	7.255677E-3	137.823121E-3	7.255677E-6
355	9.564000E+0	7.255228E+0	7.255228E-3	137.831639E-3	7.255228E-6
356	9.591000E+0	7.255026E+0	7.255026E-3	137.835479E-3	7.255026E-6
357	9.617000E+0	7.255272E+0	7.255272E-3	137.830808E-3	7.255272E-6
358	9.643000E+0	7.255021E+0	7.255021E-3	137.835585E-3	7.255021E-6
359	9.669000E+0	7.254843E+0	7.254843E-3	137.838956E-3	7.254843E-6
360	9.696000E+0	7.254777E+0	7.254777E-3	137.840203E-3	7.254777E-6
361	9.722000E+0	7.254376E+0	7.254376E-3	137.847839E-3	7.254376E-6
362	9.749000E+0	7.253884E+0	7.253884E-3	137.857184E-3	7.253884E-6
363	9.775000E+0	7.253774E+0	7.253774E-3	137.859263E-3	7.253774E-6
364	9.801000E+0	7.253936E+0	7.253936E-3	137.856201E-3	7.253936E-6
365	9.827000E+0	7.253719E+0	7.253719E-3	137.860308E-3	7.253719E-6
366	9.854000E+0	7.253394E+0	7.253394E-3	137.866485E-3	7.253394E-6
367	9.880000E+0	7.252845E+0	7.252845E-3	137.876930E-3	7.252845E-6
368	9.907000E+0	7.252206E+0	7.252206E-3	137.889085E-3	7.252206E-6
369	9.933000E+0	7.252107E+0	7.252107E-3	137.890962E-3	7.252107E-6
370	9.959000E+0	7.252151E+0	7.252151E-3	137.890130E-3	7.252151E-6
371	9.986000E+0	7.252189E+0	7.252189E-3	137.889404E-3	7.252189E-6
372	10.012000E+0	7.252156E+0	7.252156E-3	137.890024E-3	7.252156E-6
373	10.038000E+0	7.252112E+0	7.252113E-3	137.890856E-3	7.252113E-6
374	10.064000E+0	7.251957E+0	7.251957E-3	137.893822E-3	7.251957E-6
375	10.091000E+0	7.251623E+0	7.251623E-3	137.900162E-3	7.251623E-6
376	10.117000E+0	7.251304E+0	7.251304E-3	137.906237E-3	7.251304E-6
377	10.144000E+0	7.251060E+0	7.251060E-3	137.910869E-3	7.251060E-6
378	10.170000E+0	7.250885E+0	7.250885E-3	137.914190E-3	7.250885E-6
379	10.196000E+0	7.250795E+0	7.250795E-3	137.915909E-3	7.250795E-6
380	10.222000E+0	7.250688E+0	7.250688E-3	137.917937E-3	7.250689E-6
381	10.249000E+0	7.250503E+0	7.250503E-3	137.921471E-3	7.250503E-6
382	10.275000E+0	7.250060E+0	7.250060E-3	137.929896E-3	7.250060E-6
383	10.302000E+0	7.249803E+0	7.249803E-3	137.934786E-3	7.249803E-6
384	10.328000E+0	7.249726E+0	7.249726E-3	137.936239E-3	7.249726E-6
385	10.354000E+0	7.249680E+0	7.249680E-3	137.937125E-3	7.249680E-6
386	10.381000E+0	7.249904E+0	7.249904E-3	137.932863E-3	7.249904E-6
387	10.407000E+0	7.250186E+0	7.250186E-3	137.927504E-3	7.250186E-6
388	10.433000E+0	7.249814E+0	7.249814E-3	137.934573E-3	7.249814E-6
389	10.460000E+0	7.249418E+0	7.249418E-3	137.942113E-3	7.249418E-6
390	10.486000E+0	7.249858E+0	7.249858E-3	137.933741E-3	7.249858E-6
391	10.513000E+0	7.250303E+0	7.250303E-3	137.925271E-3	7.250303E-6
392	10.539000E+0	7.250781E+0	7.250781E-3	137.916174E-3	7.250781E-6
393	10.565000E+0	7.251290E+0	7.251290E-3	137.906503E-3	7.251290E-6
394	10.591000E+0	7.251842E+0	7.251842E-3	137.896000E-3	7.251842E-6
395	10.618000E+0	7.252309E+0	7.252309E-3	137.887111E-3	7.252309E-6
396	10.644000E+0	7.252531E+0	7.252531E-3	137.882906E-3	7.252531E-6
397	10.671000E+0	7.252858E+0	7.252858E-3	137.876673E-3	7.252858E-6
398	10.697000E+0	7.253140E+0	7.253140E-3	137.871318E-3	7.253140E-6
399	10.723000E+0	7.253624E+0	7.253624E-3	137.862122E-3	7.253624E-6
400	10.749000E+0	7.253624E+0	7.253624E-3	137.862122E-3	7.253624E-6
401	10.776000E+0	7.253476E+0	7.253476E-3	137.864927E-3	7.253476E-6
402	10.802000E+0	7.253233E+0	7.253233E-3	137.869548E-3	7.253233E-6
403	10.828000E+0	7.253014E+0	7.253014E-3	137.873708E-3	7.253014E-6
404	10.855000E+0	7.253086E+0	7.253086E-3	137.872354E-3	7.253086E-6
405	10.881000E+0	7.253468E+0	7.253468E-3	137.865087E-3	7.253468E-6
406	10.908000E+0	7.253747E+0	7.253747E-3	137.859785E-3	7.253747E-6
407	10.934000E+0	7.253796E+0	7.253796E-3	137.858847E-3	7.253796E-6
408	10.960000E+0	7.254105E+0	7.254105E-3	137.852980E-3	7.254105E-6
409	10.986000E+0	7.254458E+0	7.254458E-3	137.846281E-3	7.254458E-6
410	11.013000E+0	7.254736E+0	7.254737E-3	137.840982E-3	7.254737E-6
411	11.039000E+0	7.255086E+0	7.255086E-3	137.834337E-3	7.255086E-6
412	11.066000E+0	7.255212E+0	7.255212E-3	137.831949E-3	7.255212E-6
413	11.092000E+0	7.255051E+0	7.255051E-3	137.835010E-3	7.255051E-6
414	11.118000E+0	7.254977E+0	7.254977E-3	137.836416E-3	7.254977E-6
415	11.144000E+0	7.255365E+0	7.255365E-3	137.829038E-3	7.255365E-6
416	11.171000E+0	7.255548E+0	7.255548E-3	137.825562E-3	7.255548E-6
417	11.197000E+0	7.256051E+0	7.256051E-3	137.816009E-3	7.256051E-6
418	11.224000E+0	7.256904E+0	7.256904E-3	137.799808E-3	7.256904E-6
419	11.250000E+0	7.256967E+0	7.256967E-3	137.798614E-3	7.256967E-6
420	11.276000E+0	7.256786E+0	7.256786E-3	137.802045E-3	7.256786E-6
421	11.303000E+0	7.256893E+0	7.256893E-3	137.800020E-3	7.256893E-6
422	11.329000E+0	7.257388E+0	7.257388E-3	137.790630E-3	7.257388E-6
423	11.355000E+0	7.257483E+0	7.257483E-3	137.788809E-3	7.257483E-6
424	11.381000E+0	7.257404E+0	7.257404E-3	137.790312E-3	7.257404E-6
425	11.408000E+0	7.257806E+0	7.257806E-3	137.782683E-3	7.257806E-6
426	11.434000E+0	7.258137E+0	7.258137E-3	137.776406E-3	7.258137E-6
427	11.461000E+0	7.258257E+0	7.258257E-3	137.774126E-3	7.258257E-6
428	11.487000E+0	7.258694E+0	7.258694E-3	137.765827E-3	7.258694E-6
429	11.513000E+0	7.259309E+0	7.259309E-3	137.754153E-3	7.259309E-6
430	11.539000E+0	7.259634E+0	7.259634E-3	137.747985E-3	7.259634E-6
431	11.566000E+0	7.259818E+0	7.259818E-3	137.744504E-3	7.259818E-6
432	11.593000E+0	7.260269E+0	7.260269E-3	137.735952E-3	7.260269E-6
433	11.619000E+0	7.260528E+0	7.260528E-3	137.731023E-3	7.260528E-6
434	11.645000E+0	7.260643E+0	7.260643E-3	137.728849E-3	7.260643E-6
435	11.671000E+0	7.260668E+0	7.260668E-3	137.728381E-3	7.260668E-6
436	11.698000E+0	7.260416E+0	7.260416E-3	137.733151E-3	7.260416E-6
437	11.724000E+0	7.260228E+0	7.260228E-3	137.736729E-3	7.260228E-6
438	11.751000E+0	7.260337E+0	7.260337E-3	137.734653E-3	7.260337E-6
439	11.777000E+0	7.260476E+0	7.260476E-3	137.732012E-3	7.260476E-6
440	11.803000E+0	7.260856E+0	7.260856E-3	137.724804E-3	7.260856E-6
441	11.836000E+0	7.260925E+0	7.260925E-3	137.723506E-3	7.260925E-6
442	11.869000E+0	7.260219E+0	7.260219E-3	137.736888E-3	7.260219E-6
443	11.902000E+0	7.259760E+0	7.259760E-3	137.745599E-3	7.259760E-6
444	11.934000E+0	7.259170E+0	7.259170E-3	137.756795E-3	7.259170E-6
445	11.967000E+0	7.259083E+0	7.259083E-3	137.758456E-3	7.259083E-6
446	12.000000E+0	7.259309E+0	7.259309E-3	137.754153E-3	7.259309E-6
447	12.033000E+0	7.258763E+0	7.258763E-3	137.764527E-3	7.258763E-6
448	12.066000E+0	7.258120E+0	7.258120E-3	137.776716E-3	7.258120E-6
449	12.099000E+0	7.257409E+0	7.257409E-3	137.790215E-3	7.257409E-6
450	12.131000E+0	7.256704E+0	7.256704E-3	137.803602E-3	7.256704E-6
451	12.160000E+0	7.256213E+0	7.256213E-3	137.812940E-3	7.256213E-6
452	12.186000E+0	7.255876E+0	7.255876E-3	137.819326E-3	7.255876E-6
453	12.212000E+0	7.255482E+0	7.255482E-3	137.826809E-3	7.255482E-6
454	12.239000E+0	7.255422E+0	7.255422E-3	137.827950E-3	7.255422E-6
455	12.265000E+0	7.255417E+0	7.255417E-3	137.828048E-3	7.255417E-6
456	12.291000E+0	7.255239E+0	7.255239E-3	137.831427E-3	7.255239E-6
457	12.318000E+0	7.255081E+0	7.255081E-3	137.834435E-3	7.255081E-6
458	12.344000E+0	7.254857E+0	7.254857E-3	137.838699E-3	7.254857E-6
459	12.371000E+0	7.254750E+0	7.254750E-3	137.840725E-3	7.254750E-6
460	12.397000E+0	7.254769E+0	7.254769E-3	137.840362E-3	7.254769E-6
461	12.423000E+0	7.254247E+0	7.254247E-3	137.850281E-3	7.254247E-6
462	12.449000E+0	7.253862E+0	7.253862E-3	137.857599E-3	7.253862E-6
463	12.475000E+0	7.254130E+0	7.254130E-3	137.852511E-3	7.254130E-6
464	12.502000E+0	7.254343E+0	7.254343E-3	137.848458E-3	7.254343E-6
465	12.528000E+0	7.254162E+0	7.254162E-3	137.851892E-3	7.254162E-6
466	12.555000E+0	7.254053E+0	7.254053E-3	137.853962E-3	7.254053E-6
467	12.581000E+0	7.254127E+0	7.254127E-3	137.852564E-3	7.254127E-6
468	12.607000E+0	7.253974E+0	7.253974E-3	137.855476E-3	7.253974E-6
469	12.634000E+0	7.253944E+0	7.253944E-3	137.856042E-3	7.253944E-6
470	12.660000E+0	7.254296E+0	7.254296E-3	137.849343E-3	7.254296E-6
471	12.686000E+0	7.254187E+0	7.254187E-3	137.851423E-3	7.254187E-6
472	12.713000E+0	7.253498E+0	7.253498E-3	137.864512E-3	7.253498E-6
473	12.739000E+0	7.253320E+0	7.253320E-3	137.867893E-3	7.253320E-6
474	12.766000E+0	7.253277E+0	7.253277E-3	137.868716E-3	7.253277E-6
475	12.792000E+0	7.253094E+0	7.253094E-3	137.872203E-3	7.253094E-6
476	12.818000E+0	7.253014E+0	7.253014E-3	137.873708E-3	7.253014E-6
477	12.844000E+0	7.253113E+0	7.253113E-3	137.871840E-3	7.253113E-6
478	12.871000E+0	7.252949E+0	7.252949E-3	137.874956E-3	7.252949E-6
479	12.897000E+0	7.252689E+0	7.252689E-3	137.879887E-3	7.252689E-6
480	12.924000E+0	7.252779E+0	7.252779E-3	137.878178E-3	7.252779E-6
481	12.950000E+0	7.252709E+0	7.252709E-3	137.879524E-3	7.252709E-6
482	12.976000E+0	7.252449E+0	7.252449E-3	137.884464E-3	7.252449E-6
483	13.002000E+0	7.252435E+0	7.252435E-3	137.884720E-3	7.252435E-6
484	13.029000E+0	7.252430E+0	7.252430E-3	137.884827E-3	7.252430E-6
485	13.055000E+0	7.252137E+0	7.252137E-3	137.890387E-3	7.252137E-6
486	13.081000E+0	7.251992E+0	7.251992E-3	137.893140E-3	7.251992E-6
487	13.108000E+0	7.251793E+0	7.251793E-3	137.896939E-3	7.251793E-6
488	13.134000E+0	7.251681E+0	7.251681E-3	137.899064E-3	7.251681E-6
489	13.161000E+0	7.251752E+0	7.251752E-3	137.897718E-3	7.251752E-6
490	13.187000E+0	7.251434E+0	7.251434E-3	137.903749E-3	7.251434E-6
491	13.213000E+0	7.251159E+0	7.251159E-3	137.908991E-3	7.251159E-6
492	13.239000E+0	7.251855E+0	7.251855E-3	137.895744E-3	7.251855E-6
493	13.266000E+0	7.252498E+0	7.252498E-3	137.883525E-3	7.252498E-6
494	13.292000E+0	7.253118E+0	7.253118E-3	137.871734E-3	7.253118E-6
495	13.319000E+0	7.253225E+0	7.253225E-3	137.869707E-3	7.253225E-6
496	13.345000E+0	7.253444E+0	7.253444E-3	137.865547E-3	7.253444E-6
497	13.371000E+0	7.254138E+0	7.254138E-3	137.852352E-3	7.254138E-6
498	13.397000E+0	7.255190E+0	7.255190E-3	137.832365E-3	7.255190E-6
499	13.424000E+0	7.255707E+0	7.255707E-3	137.822546E-3	7.255707E-6
500	13.450000E+0	7.255387E+0	7.255387E-3	137.828622E-3	7.255387E-6
501	13.477000E+0	7.255537E+0	7.255537E-3	137.825765E-3	7.255537E-6
502	13.503000E+0	7.255783E+0	7.255783E-3	137.821095E-3	7.255783E-6
503	13.529000E+0	7.255868E+0	7.255868E-3	137.819485E-3	7.255868E-6
504	13.556000E+0	7.255431E+0	7.255431E-3	137.827791E-3	7.255431E-6
505	13.582000E+0	7.255475E+0	7.255475E-3	137.826960E-3	7.255475E-6
506	13.608000E+0	7.255783E+0	7.255783E-3	137.821095E-3	7.255783E-6
507	13.634000E+0	7.255841E+0	7.255841E-3	137.820007E-3	7.255841E-6
508	13.661000E+0	7.255999E+0	7.255999E-3	137.816991E-3	7.255999E-6
509	13.687000E+0	7.255983E+0	7.255983E-3	137.817301E-3	7.255983E-6
510	13.714000E+0	7.255966E+0	7.255966E-3	137.817619E-3	7.255966E-6
511	13.740000E+0	7.256201E+0	7.256201E-3	137.813153E-3	7.256201E-6
512	13.766000E+0	7.256349E+0	7.256349E-3	137.810349E-3	7.256349E-6
513	13.792000E+0	7.256229E+0	7.256229E-3	137.812631E-3	7.256229E-6
514	13.819000E+0	7.256377E+0	7.256377E-3	137.809827E-3	7.256377E-6
515	13.845000E+0	7.255843E+0	7.255843E-3	137.819954E-3	7.255843E-6
516	13.872000E+0	7.255215E+0	7.255215E-3	137.831896E-3	7.255215E-6
517	13.898000E+0	7.254898E+0	7.254898E-3	137.837920E-3	7.254898E-6
518	13.924000E+0	7.254589E+0	7.254589E-3	137.843786E-3	7.254589E-6
519	13.951000E+0	7.254745E+0	7.254745E-3	137.840822E-3	7.254745E-6
520	13.977000E+0	7.254428E+0	7.254428E-3	137.846848E-3	7.254428E-6
521	14.003000E+0	7.254583E+0	7.254583E-3	137.843892E-3	7.254583E-6
522	14.030000E+0	7.255097E+0	7.255097E-3	137.834125E-3	7.255097E-6
523	14.056000E+0	7.254898E+0	7.254898E-3	137.837920E-3	7.254898E-6
524	14.083000E+0	7.255010E+0	7.255010E-3	137.835788E-3	7.255010E-6
525	14.109000E+0	7.255340E+0	7.255340E-3	137.829507E-3	7.255340E-6
526	14.135000E+0	7.255209E+0	7.255209E-3	137.832002E-3	7.255209E-6
527	14.161000E+0	7.255073E+0	7.255073E-3	137.834594E-3	7.255073E-6
528	14.188000E+0	7.255611E+0	7.255611E-3	137.824368E-3	7.255611E-6
529	14.214000E+0	7.255674E+0	7.255674E-3	137.823174E-3	7.255674E-6
530	14.240000E+0	7.255256E+0	7.255256E-3	137.831117E-3	7.255256E-6
531	14.267000E+0	7.255414E+0	7.255414E-3	137.828101E-3	7.255414E-6
532	14.293000E+0	7.255264E+0	7.255264E-3	137.830958E-3	7.255264E-6
533	14.319000E+0	7.255119E+0	7.255119E-3	137.833709E-3	7.255119E-6
534	14.346000E+0	7.255595E+0	7.255595E-3	137.824677E-3	7.255595E-6
535	14.372000E+0	7.255193E+0	7.255193E-3	137.832311E-3	7.255193E-6
536	14.399000E+0	7.254589E+0	7.254589E-3	137.843786E-3	7.254589E-6
537	14.425000E+0	7.254507E+0	7.254507E-3	137.845344E-3	7.254507E-6
538	14.451000E+0	7.254061E+0	7.254061E-3	137.853812E-3	7.254061E-6
539	14.478000E+0	7.252930E+0	7.252930E-3	137.875319E-3	7.252930E-6
540	14.504000E+0	7.252140E+0	7.252140E-3	137.890334E-3	7.252140E-6
541	14.531000E+0	7.252569E+0	7.252569E-3	137.882180E-3	7.252569E-6
542	14.557000E+0	7.252815E+0	7.252815E-3	137.877497E-3	7.252815E-6
543	14.590000E+0	7.252766E+0	7.252766E-3	137.878435E-3	7.252766E-6
544	14.623000E+0	7.252080E+0	7.252080E-3	137.891476E-3	7.252080E-6
545	14.655000E+0	7.251292E+0	7.251292E-3	137.906450E-3	7.251292E-6
546	14.688000E+0	7.250388E+0	7.250388E-3	137.923659E-3	7.250388E-6
547	14.721000E+0	7.249674E+0	7.249674E-3	137.937231E-3	7.249674E-6
548	14.754000E+0	7.248857E+0	7.248857E-3	137.952782E-3	7.248857E-6
549	14.786000E+0	7.248264E+0	7.248264E-3	137.964065E-3	7.248264E-6
550	14.820000E+0	7.249005E+0	7.249005E-3	137.949973E-3	7.249005E-6
551	14.852000E+0	7.248699E+0	7.248699E-3	137.955796E-3	7.248699E-6
552	14.885000E+0	7.246835E+0	7.246835E-3	137.991281E-3	7.246835E-6
553	14.913000E+0	7.245539E+0	7.245539E-3	138.015953E-3	7.245539E-6
554	14.939000E+0	7.245585E+0	7.245585E-3	138.015075E-3	7.245585E-6
555	14.966000E+0	7.244807E+0	7.244807E-3	138.029907E-3	7.244807E-6
556	14.992000E+0	7.244462E+0	7.244462E-3	138.036472E-3	7.244462E-6
557	15.018000E+0	7.244547E+0	7.244547E-3	138.034858E-3	7.244547E-6
558	15.045000E+0	7.244372E+0	7.244372E-3	138.038194E-3	7.244372E-6
559	15.071000E+0	7.244512E+0	7.244512E-3	138.035532E-3	7.244512E-6
560	15.098000E+0	7.243976E+0	7.243976E-3	138.045745E-3	7.243976E-6
561	15.124000E+0	7.244498E+0	7.244498E-3	138.035798E-3	7.244498E-6
562	15.150000E+0	7.245137E+0	7.245137E-3	138.023608E-3	7.245137E-6
563	15.176000E+0	7.244334E+0	7.244334E-3	138.038922E-3	7.244334E-6
564	15.203000E+0	7.243136E+0	7.243136E-3	138.061738E-3	7.243136E-6
565	15.229000E+0	7.243446E+0	7.243446E-3	138.055844E-3	7.243446E-6
566	15.256000E+0	7.244230E+0	7.244230E-3	138.040900E-3	7.244230E-6
567	15.282000E+0	7.244498E+0	7.244498E-3	138.035798E-3	7.244498E-6
568	15.308000E+0	7.245602E+0	7.245602E-3	138.014755E-3	7.245602E-6
569	15.334000E+0	7.245408E+0	7.245408E-3	138.018454E-3	7.245408E-6
570	15.361000E+0	7.244711E+0	7.244711E-3	138.031735E-3	7.244711E-6
571	15.387000E+0	7.244424E+0	7.244424E-3	138.037200E-3	7.244424E-6
572	15.414000E+0	7.244356E+0	7.244356E-3	138.038504E-3	7.244356E-6
573	15.440000E+0	7.244410E+0	7.244410E-3	138.037457E-3	7.244410E-6
574	15.466000E+0	7.243500E+0	7.243500E-3	138.054806E-3	7.243500E-6
575	15.493000E+0	7.243093E+0	7.243093E-3	138.062572E-3	7.243093E-6
576	15.519000E+0	7.243702E+0	7.243702E-3	138.050954E-3	7.243702E-6
577	15.545000E+0	7.243880E+0	7.243880E-3	138.047564E-3	7.243880E-6
578	15.572000E+0	7.243664E+0	7.243664E-3	138.051682E-3	7.243664E-6
579	15.598000E+0	7.243626E+0	7.243626E-3	138.052410E-3	7.243626E-6
580	15.624000E+0	7.243547E+0	7.243547E-3	138.053918E-3	7.243547E-6
581	15.651000E+0	7.243306E+0	7.243306E-3	138.058507E-3	7.243306E-6
582	15.677000E+0	7.243470E+0	7.243470E-3	138.055383E-3	7.243470E-6
583	15.703000E+0	7.243790E+0	7.243790E-3	138.049286E-3	7.243790E-6
584	15.729000E+0	7.243456E+0	7.243456E-3	138.055640E-3	7.243456E-6
585	15.756000E+0	7.243869E+0	7.243869E-3	138.047777E-3	7.243869E-6
586	15.782000E+0	7.243981E+0	7.243981E-3	138.045639E-3	7.243981E-6
587	15.809000E+0	7.243410E+0	7.243410E-3	138.056528E-3	7.243410E-6
588	15.835000E+0	7.243817E+0	7.243817E-3	138.048762E-3	7.243817E-6
589	15.861000E+0	7.245230E+0	7.245230E-3	138.021843E-3	7.245230E-6
590	15.888000E+0	7.246234E+0	7.246234E-3	138.002729E-3	7.246234E-6
591	15.914000E+0	7.245296E+0	7.245296E-3	138.020592E-3	7.245296E-6
592	15.940000E+0	7.244662E+0	7.244662E-3	138.032666E-3	7.244662E-6
593	15.967000E+0	7.244498E+0	7.244498E-3	138.035798E-3	7.244498E-6
594	15.993000E+0	7.244328E+0	7.244328E-3	138.039028E-3	7.244328E-6
595	16.020000E+0	7.245113E+0	7.245113E-3	138.024078E-3	7.245113E-6
596	16.046000E+0	7.246253E+0	7.246253E-3	138.002365E-3	7.246253E-6
597	16.072000E+0	7.245892E+0	7.245892E-3	138.009239E-3	7.245892E-6
598	16.098000E+0	7.245793E+0	7.245793E-3	138.011110E-3	7.245793E-6
599	16.125000E+0	7.246545E+0	7.246545E-3	137.996796E-3	7.246545E-6
600	16.151000E+0	7.246241E+0	7.246241E-3	138.002578E-3	7.246241E-6
601	16.178000E+0	7.246045E+0	7.246045E-3	138.006321E-3	7.246045E-6
602	16.204000E+0	7.247157E+0	7.247157E-3	137.985136E-3	7.247157E-6
603	16.230000E+0	7.248428E+0	7.248428E-3	137.960945E-3	7.248428E-6
604	16.256000E+0	7.248636E+0	7.248636E-3	137.956992E-3	7.248636E-6
605	16.283000E+0	7.249245E+0	7.249245E-3	137.945392E-3	7.249245E-6
606	16.309000E+0	7.249940E+0	7.249940E-3	137.932181E-3	7.249940E-6
607	16.335000E+0	7.249614E+0	7.249614E-3	137.938374E-3	7.249614E-6
608	16.362000E+0	7.249177E+0	7.249177E-3	137.946694E-3	7.249177E-6
609	16.388000E+0	7.249136E+0	7.249136E-3	137.947474E-3	7.249136E-6
610	16.415000E+0	7.249202E+0	7.249202E-3	137.946225E-3	7.249202E-6
611	16.441000E+0	7.248349E+0	7.248349E-3	137.962451E-3	7.248349E-6
612	16.467000E+0	7.247485E+0	7.247485E-3	137.978895E-3	7.247485E-6
613	16.493000E+0	7.248726E+0	7.248726E-3	137.955273E-3	7.248726E-6
614	16.520000E+0	7.250044E+0	7.250044E-3	137.930206E-3	7.250044E-6
615	16.546000E+0	7.250366E+0	7.250366E-3	137.924067E-3	7.250366E-6
616	16.573000E+0	7.249595E+0	7.249595E-3	137.938738E-3	7.249595E-6
617	16.599000E+0	7.248879E+0	7.248879E-3	137.952366E-3	7.248879E-6
618	16.625000E+0	7.248048E+0	7.248048E-3	137.968177E-3	7.248048E-6
619	16.651000E+0	7.247597E+0	7.247597E-3	137.976758E-3	7.247597E-6
620	16.678000E+0	7.248043E+0	7.248043E-3	137.968284E-3	7.248043E-6
621	16.704000E+0	7.248532E+0	7.248532E-3	137.958968E-3	7.248532E-6
622	16.731000E+0	7.248163E+0	7.248163E-3	137.965988E-3	7.248163E-6
623	16.757000E+0	7.248207E+0	7.248207E-3	137.965164E-3	7.248207E-6
624	16.783000E+0	7.248912E+0	7.248912E-3	137.951737E-3	7.248912E-6
625	16.810000E+0	7.248904E+0	7.248904E-3	137.951896E-3	7.248904E-6
626	16.836000E+0	7.249046E+0	7.249046E-3	137.949193E-3	7.249046E-6
627	16.862000E+0	7.248300E+0	7.248300E-3	137.963391E-3	7.248300E-6
628	16.889000E+0	7.247045E+0	7.247045E-3	137.987273E-3	7.247045E-6
629	16.915000E+0	7.246282E+0	7.246282E-3	138.001798E-3	7.246282E-6
630	16.942000E+0	7.246512E+0	7.246512E-3	137.997426E-3	7.246512E-6
631	16.968000E+0	7.245976E+0	7.245976E-3	138.007624E-3	7.245976E-6
632	16.994000E+0	7.244883E+0	7.244883E-3	138.028452E-3	7.244883E-6
633	17.020000E+0	7.244279E+0	7.244279E-3	138.039960E-3	7.244279E-6
634	17.046000E+0	7.244766E+0	7.244766E-3	138.030688E-3	7.244766E-6
635	17.073000E+0	7.244528E+0	7.244528E-3	138.035221E-3	7.244528E-6
636	17.100000E+0	7.243842E+0	7.243842E-3	138.048292E-3	7.243842E-6
637	17.126000E+0	7.243642E+0	7.243642E-3	138.052099E-3	7.243642E-6
638	17.152000E+0	7.242612E+0	7.242612E-3	138.071742E-3	7.242612E-6
639	17.178000E+0	7.242333E+0	7.242333E-3	138.077051E-3	7.242333E-6
640	17.205000E+0	7.241540E+0	7.241540E-3	138.092171E-3	7.241540E-6
641	17.231000E+0	7.241721E+0	7.241721E-3	138.088726E-3	7.241721E-6
642	17.258000E+0	7.241972E+0	7.241972E-3	138.083931E-3	7.241972E-6
643	17.284000E+0	7.241691E+0	7.241691E-3	138.089303E-3	7.241691E-6
644	17.310000E+0	7.241833E+0	7.241833E-3	138.086595E-3	7.241833E-6
645	17.344000E+0	7.241972E+0	7.241972E-3	138.083931E-3	7.241972E-6
646	17.376000E+0	7.241480E+0	7.241480E-3	138.093317E-3	7.241480E-6
647	17.409000E+0	7.240870E+0	7.240870E-3	138.104942E-3	7.240870E-6
648	17.442000E+0	7.239458E+0	7.239458E-3	138.131894E-3	7.239458E-6
649	17.475000E+0	7.238138E+0	7.238138E-3	138.157087E-3	7.238138E-6
650	17.507000E+0	7.237544E+0	7.237544E-3	138.168412E-3	7.237544E-6
651	17.540000E+0	7.237768E+0	7.237768E-3	138.164136E-3	7.237768E-6
652	17.573000E+0	7.237711E+0	7.237711E-3	138.165230E-3	7.237711E-6
653	17.606000E+0	7.236839E+0	7.236839E-3	138.181872E-3	7.236839E-6
654	17.639000E+0	7.236432E+0	7.236432E-3	138.189653E-3	7.236432E-6
655	17.667000E+0	7.234622E+0	7.234622E-3	138.224217E-3	7.234622E-6
656	17.693000E+0	7.232144E+0	7.232144E-3	138.271592E-3	7.232144E-6
657	17.720000E+0	7.231501E+0	7.231501E-3	138.283879E-3	7.231501E-6
658	17.746000E+0	7.231466E+0	7.231466E-3	138.284556E-3	7.231466E-6
659	17.773000E+0	7.231520E+0	7.231520E-3	138.283514E-3	7.231520E-6
660	17.799000E+0	7.231714E+0	7.231714E-3	138.279801E-3	7.231714E-6
661	17.825000E+0	7.231952E+0	7.231952E-3	138.275251E-3	7.231952E-6
662	17.851000E+0	7.232944E+0	7.232944E-3	138.256289E-3	7.232944E-6
663	17.878000E+0	7.232097E+0	7.232097E-3	138.272482E-3	7.232097E-6
664	17.904000E+0	7.230022E+0	7.230022E-3	138.312157E-3	7.230022E-6
665	17.931000E+0	7.229716E+0	7.229716E-3	138.318019E-3	7.229716E-6
666	17.957000E+0	7.231124E+0	7.231124E-3	138.291092E-3	7.231124E-6
667	17.983000E+0	7.231411E+0	7.231411E-3	138.285607E-3	7.231411E-6
668	18.010000E+0	7.232171E+0	7.232171E-3	138.271075E-3	7.232171E-6
669	18.036000E+0	7.232007E+0	7.232007E-3	138.274209E-3	7.232007E-6
670	18.062000E+0	7.230648E+0	7.230648E-3	138.300185E-3	7.230648E-6
671	18.088000E+0	7.229213E+0	7.229213E-3	138.327641E-3	7.229213E-6
672	18.115000E+0	7.228976E+0	7.228976E-3	138.332185E-3	7.228976E-6
673	18.141000E+0	7.228421E+0	7.228421E-3	138.342808E-3	7.228421E-6
674	18.168000E+0	7.226182E+0	7.226182E-3	138.385662E-3	7.226182E-6
675	18.194000E+0	7.225761E+0	7.225761E-3	138.393724E-3	7.225761E-6
676	18.220000E+0	7.225635E+0	7.225635E-3	138.396132E-3	7.225635E-6
677	18.246000E+0	7.225247E+0	7.225247E-3	138.403571E-3	7.225247E-6
678	18.273000E+0	7.226073E+0	7.226073E-3	138.387758E-3	7.226073E-6
679	18.299000E+0	7.226275E+0	7.226275E-3	138.383887E-3	7.226275E-6
680	18.326000E+0	7.225179E+0	7.225179E-3	138.404873E-3	7.225179E-6
681	18.352000E+0	7.225575E+0	7.225575E-3	138.397283E-3	7.225575E-6
682	18.378000E+0	7.227166E+0	7.227166E-3	138.366821E-3	7.227166E-6
683	18.405000E+0	7.227174E+0	7.227174E-3	138.366661E-3	7.227174E-6
684	18.431000E+0	7.226127E+0	7.226127E-3	138.386714E-3	7.226127E-6
685	18.457000E+0	7.225846E+0	7.225846E-3	138.392101E-3	7.225846E-6
686	18.484000E+0	7.226679E+0	7.226679E-3	138.376139E-3	7.226679E-6
687	18.510000E+0	7.225059E+0	7.225059E-3	138.407184E-3	7.225059E-6
688	18.537000E+0	7.222068E+0	7.222068E-3	138.464486E-3	7.222068E-6
689	18.563000E+0	7.221686E+0	7.221686E-3	138.471825E-3	7.221686E-6
690	18.589000E+0	7.222877E+0	7.222877E-3	138.448980E-3	7.222877E-6
691	18.615000E+0	7.222254E+0	7.222254E-3	138.460924E-3	7.222254E-6
692	18.642000E+0	7.221227E+0	7.221227E-3	138.480629E-3	7.221227E-6
693	18.668000E+0	7.221183E+0	7.221183E-3	138.481469E-3	7.221183E-6
694	18.695000E+0	7.220937E+0	7.220937E-3	138.486184E-3	7.220937E-6
695	18.721000E+0	7.220522E+0	7.220522E-3	138.494150E-3	7.220522E-6
696	18.747000E+0	7.219997E+0	7.219997E-3	138.504217E-3	7.219997E-6
697	18.773000E+0	7.220434E+0	7.220434E-3	138.495830E-3	7.220434E-6
698	18.800000E+0	7.221773E+0	7.221773E-3	138.470146E-3	7.221773E-6
699	18.826000E+0	7.222790E+0	7.222790E-3	138.450649E-3	7.222790E-6
700	18.853000E+0	7.222224E+0	7.222224E-3	138.461495E-3	7.222224E-6
701	18.879000E+0	7.222306E+0	7.222306E-3	138.459924E-3	7.222306E-6
702	18.905000E+0	7.222954E+0	7.222954E-3	138.447507E-3	7.222954E-6
703	18.932000E+0	7.222817E+0	7.222817E-3	138.450131E-3	7.222817E-6
704	18.958000E+0	7.222735E+0	7.222735E-3	138.451702E-3	7.222735E-6
705	18.984000E+0	7.224332E+0	7.224332E-3	138.421110E-3	7.224332E-6
706	19.010000E+0	7.225854E+0	7.225854E-3	138.391949E-3	7.225854E-6
707	19.037000E+0	7.226133E+0	7.226133E-3	138.386607E-3	7.226133E-6
708	19.063000E+0	7.226827E+0	7.226827E-3	138.373312E-3	7.226827E-6
709	19.090000E+0	7.225947E+0	7.225947E-3	138.390166E-3	7.225947E-6
710	19.116000E+0	7.225428E+0	7.225428E-3	138.400110E-3	7.225428E-6
711	19.142000E+0	7.224952E+0	7.224952E-3	138.409227E-3	7.224952E-6
712	19.168000E+0	7.224140E+0	7.224140E-3	138.424777E-3	7.224140E-6
713	19.195000E+0	7.224389E+0	7.224389E-3	138.420012E-3	7.224389E-6
714	19.221000E+0	7.225048E+0	7.225048E-3	138.407389E-3	7.225048E-6
715	19.248000E+0	7.224332E+0	7.224332E-3	138.421110E-3	7.224332E-6
716	19.274000E+0	7.223146E+0	7.223146E-3	138.443839E-3	7.223146E-6
717	19.300000E+0	7.223465E+0	7.223465E-3	138.437716E-3	7.223465E-6
718	19.327000E+0	7.222640E+0	7.222640E-3	138.453532E-3	7.222640E-6
719	19.353000E+0	7.223553E+0	7.223553E-3	138.436038E-3	7.223553E-6
720	19.379000E+0	7.225245E+0	7.225245E-3	138.403616E-3	7.225245E-6
721	19.406000E+0	7.226174E+0	7.226174E-3	138.385822E-3	7.226174E-6
722	19.432000E+0	7.225602E+0	7.225602E-3	138.396765E-3	7.225602E-6
723	19.459000E+0	7.226210E+0	7.226210E-3	138.385136E-3	7.226210E-6
724	19.485000E+0	7.228806E+0	7.228806E-3	138.335429E-3	7.228806E-6
725	19.511000E+0	7.228235E+0	7.228235E-3	138.346364E-3	7.228235E-6
726	19.537000E+0	7.227456E+0	7.227456E-3	138.361276E-3	7.227456E-6
727	19.564000E+0	7.228336E+0	7.228336E-3	138.344430E-3	7.228336E-6
728	19.590000E+0	7.228803E+0	7.228803E-3	138.335482E-3	7.228803E-6
729	19.617000E+0	7.228650E+0	7.228650E-3	138.338414E-3	7.228650E-6
730	19.643000E+0	7.228041E+0	7.228041E-3	138.350081E-3	7.228041E-6
731	19.669000E+0	7.225925E+0	7.225925E-3	138.390585E-3	7.225925E-6
732	19.695000E+0	7.222131E+0	7.222131E-3	138.463280E-3	7.222131E-6
733	19.722000E+0	7.221257E+0	7.221257E-3	138.480049E-3	7.221257E-6
734	19.748000E+0	7.220926E+0	7.220926E-3	138.486398E-3	7.220926E-6
735	19.775000E+0	7.221383E+0	7.221383E-3	138.477638E-3	7.221383E-6
736	19.801000E+0	7.221932E+0	7.221932E-3	138.467102E-3	7.221932E-6
737	19.827000E+0	7.223550E+0	7.223550E-3	138.436092E-3	7.223550E-6
738	19.854000E+0	7.227401E+0	7.227401E-3	138.362319E-3	7.227401E-6
739	19.880000E+0	7.226745E+0	7.226745E-3	138.374881E-3	7.226745E-6
740	19.907000E+0	7.224681E+0	7.224681E-3	138.414410E-3	7.224681E-6
741	19.933000E+0	7.225452E+0	7.225452E-3	138.399637E-3	7.225452E-6
742	19.959000E+0	7.225223E+0	7.225223E-3	138.404035E-3	7.225223E-6
743	19.986000E+0	7.224643E+0	7.224643E-3	138.415141E-3	7.224643E-6
744	20.012000E+0	7.225143E+0	7.225143E-3	138.405560E-3	7.225143E-6
745	20.039000E+0	7.225130E+0	7.225130E-3	138.405819E-3	7.225130E-6
746	20.065000E+0	7.225597E+0	7.225597E-3	138.396863E-3	7.225597E-6
747	20.097000E+0	7.226264E+0	7.226264E-3	138.384093E-3	7.226264E-6
748	20.131000E+0	7.225767E+0	7.225767E-3	138.393617E-3	7.225767E-6
749	20.163000E+0	7.225357E+0	7.225357E-3	138.401475E-3	7.225357E-6
750	20.196000E+0	7.226097E+0	7.226097E-3	138.387285E-3	7.226097E-6
751	20.229000E+0	7.222722E+0	7.222722E-3	138.451961E-3	7.222722E-6
752	20.262000E+0	7.220073E+0	7.220073E-3	138.502752E-3	7.220073E-6
753	20.294000E+0	7.217802E+0	7.217802E-3	138.546340E-3	7.217802E-6
754	20.327000E+0	7.213544E+0	7.213544E-3	138.628121E-3	7.213544E-6
755	20.360000E+0	7.211113E+0	7.211113E-3	138.674841E-3	7.211113E-6
756	20.393000E+0	7.209646E+0	7.209646E-3	138.703073E-3	7.209646E-6
757	20.421000E+0	7.208257E+0	7.208257E-3	138.729784E-3	7.208257E-6
758	20.447000E+0	7.206727E+0	7.206727E-3	138.759249E-3	7.206727E-6
759	20.474000E+0	7.206218E+0	7.206218E-3	138.769040E-3	7.206218E-6
760	20.500000E+0	7.204770E+0	7.204770E-3	138.796943E-3	7.204770E-6
761	20.526000E+0	7.204953E+0	7.204953E-3	138.793417E-3	7.204953E-6
762	20.553000E+0	7.205885E+0	7.205885E-3	138.775461E-3	7.205885E-6
763	20.579000E+0	7.205169E+0	7.205169E-3	138.789255E-3	7.205169E-6
764	20.606000E+0	7.204236E+0	7.204236E-3	138.807215E-3	7.204236E-6
765	20.632000E+0	7.204895E+0	7.204895E-3	138.794521E-3	7.204895E-6
766	20.658000E+0	7.204701E+0	7.204701E-3	138.798262E-3	7.204701E-6
767	20.684000E+0	7.204387E+0	7.204387E-3	138.804317E-3	7.204387E-6
768	20.711000E+0	7.205188E+0	7.205188E-3	138.788887E-3	7.205188E-6
769	20.737000E+0	7.204751E+0	7.204751E-3	138.797311E-3	7.204751E-6
770	20.764000E+0	7.203717E+0	7.203717E-3	138.817220E-3	7.203717E-6
771	20.790000E+0	7.204122E+0	7.204122E-3	138.809422E-3	7.204122E-6
772	20.816000E+0	7.205166E+0	7.205166E-3	138.789309E-3	7.205166E-6
773	20.842000E+0	7.205084E+0	7.205084E-3	138.790888E-3	7.205084E-6
774	20.869000E+0	7.204529E+0	7.204529E-3	138.801581E-3	7.204529E-6
775	20.895000E+0	7.205658E+0	7.205658E-3	138.779829E-3	7.205658E-6
776	20.922000E+0	7.206691E+0	7.206691E-3	138.759939E-3	7.206691E-6
777	20.948000E+0	7.207038E+0	7.207038E-3	138.753251E-3	7.207038E-6
778	20.974000E+0	7.206819E+0	7.206819E-3	138.757465E-3	7.206819E-6
779	21.001000E+0	7.207098E+0	7.207098E-3	138.752094E-3	7.207098E-6
780	21.027000E+0	7.208058E+0	7.208058E-3	138.733629E-3	7.208058E-6
781	21.053000E+0	7.210420E+0	7.210420E-3	138.688186E-3	7.210420E-6
782	21.080000E+0	7.215459E+0	7.215459E-3	138.591315E-3	7.215459E-6
783	21.106000E+0	7.216457E+0	7.216457E-3	138.572150E-3	7.216457E-6
784	21.133000E+0	7.215263E+0	7.215263E-3	138.595089E-3	7.215263E-6
785	21.159000E+0	7.215386E+0	7.215386E-3	138.592728E-3	7.215386E-6
786	21.185000E+0	7.215074E+0	7.215074E-3	138.598712E-3	7.215074E-6
787	21.211000E+0	7.216039E+0	7.216039E-3	138.580180E-3	7.216039E-6
788	21.238000E+0	7.216206E+0	7.216206E-3	138.576979E-3	7.216206E-6
789	21.264000E+0	7.217294E+0	7.217294E-3	138.556092E-3	7.217294E-6
790	21.291000E+0	7.219021E+0	7.219021E-3	138.522943E-3	7.219021E-6
791	21.317000E+0	7.219507E+0	7.219507E-3	138.513606E-3	7.219507E-6
792	21.343000E+0	7.221522E+0	7.221522E-3	138.474968E-3	7.221522E-6
793	21.369000E+0	7.222162E+0	7.222162E-3	138.462700E-3	7.222162E-6
794	21.396000E+0	7.221451E+0	7.221451E-3	138.476334E-3	7.221451E-6
795	21.422000E+0	7.221533E+0	7.221533E-3	138.474753E-3	7.221533E-6
796	21.448000E+0	7.221820E+0	7.221820E-3	138.469253E-3	7.221820E-6
797	21.475000E+0	7.222552E+0	7.222552E-3	138.455210E-3	7.222552E-6
798	21.501000E+0	7.223695E+0	7.223695E-3	138.433317E-3	7.223695E-6
799	21.528000E+0	7.224135E+0	7.224135E-3	138.424884E-3	7.224135E-6
800	21.554000E+0	7.224523E+0	7.224523E-3	138.417443E-3	7.224523E-6
801	21.580000E+0	7.228454E+0	7.228454E-3	138.342175E-3	7.228454E-6
802	21.606000E+0	7.231463E+0	7.231463E-3	138.284609E-3	7.231463E-6
803	21.633000E+0	7.235033E+0	7.235033E-3	138.216380E-3	7.235033E-6
804	21.659000E+0	7.240108E+0	7.240108E-3	138.119483E-3	7.240108E-6
805	21.686000E+0	7.242899E+0	7.242899E-3	138.066265E-3	7.242899E-6
806	21.712000E+0	7.244858E+0	7.244858E-3	138.028922E-3	7.244858E-6
807	21.738000E+0	7.246797E+0	7.246797E-3	137.992008E-3	7.246797E-6
808	21.764000E+0	7.248067E+0	7.248067E-3	137.967814E-3	7.248067E-6
809	21.791000E+0	7.249396E+0	7.249396E-3	137.942530E-3	7.249396E-6
810	21.817000E+0	7.251421E+0	7.251421E-3	137.904005E-3	7.251421E-6
811	21.844000E+0	7.251768E+0	7.251768E-3	137.897400E-3	7.251768E-6
812	21.870000E+0	7.251085E+0	7.251085E-3	137.910400E-3	7.251085E-6
813	21.896000E+0	7.252093E+0	7.252093E-3	137.891219E-3	7.252093E-6
814	21.923000E+0	7.254099E+0	7.254099E-3	137.853086E-3	7.254099E-6
815	21.949000E+0	7.254493E+0	7.254493E-3	137.845600E-3	7.254493E-6
816	21.975000E+0	7.255685E+0	7.255685E-3	137.822961E-3	7.255685E-6
817	22.001000E+0	7.255890E+0	7.255890E-3	137.819070E-3	7.255890E-6
818	22.028000E+0	7.254696E+0	7.254696E-3	137.841760E-3	7.254696E-6
819	22.054000E+0	7.254545E+0	7.254545E-3	137.844618E-3	7.254545E-6
820	22.081000E+0	7.255171E+0	7.255171E-3	137.832727E-3	7.255171E-6
821	22.107000E+0	7.254928E+0	7.254928E-3	137.837345E-3	7.254928E-6
822	22.133000E+0	7.255092E+0	7.255092E-3	137.834231E-3	7.255092E-6
823	22.159000E+0	7.255387E+0	7.255387E-3	137.828622E-3	7.255387E-6
824	22.186000E+0	7.255568E+0	7.255568E-3	137.825190E-3	7.255568E-6
825	22.212000E+0	7.255775E+0	7.255775E-3	137.821245E-3	7.255775E-6
826	22.239000E+0	7.255354E+0	7.255354E-3	137.829242E-3	7.255354E-6
827	22.265000E+0	7.255256E+0	7.255256E-3	137.831117E-3	7.255256E-6
828	22.291000E+0	7.254955E+0	7.254955E-3	137.836823E-3	7.254955E-6
829	22.318000E+0	7.255108E+0	7.255108E-3	137.833921E-3	7.255108E-6
830	22.344000E+0	7.255628E+0	7.255628E-3	137.824049E-3	7.255628E-6
831	22.370000E+0	7.255663E+0	7.255663E-3	137.823377E-3	7.255663E-6
832	22.397000E+0	7.254417E+0	7.254417E-3	137.847060E-3	7.254417E-6
833	22.423000E+0	7.254614E+0	7.254614E-3	137.843317E-3	7.254614E-6
834	22.450000E+0	7.256283E+0	7.256283E-3	137.811596E-3	7.256283E-6
835	22.476000E+0	7.256475E+0	7.256475E-3	137.807961E-3	7.256475E-6
836	22.502000E+0	7.257016E+0	7.257016E-3	137.797686E-3	7.257016E-6
837	22.528000E+0	7.257276E+0	7.257276E-3	137.792752E-3	7.257276E-6
838	22.555000E+0	7.257459E+0	7.257459E-3	137.789278E-3	7.257459E-6
839	22.581000E+0	7.257511E+0	7.257511E-3	137.788288E-3	7.257511E-6
840	22.608000E+0	7.257724E+0	7.257724E-3	137.784239E-3	7.257724E-6
841	22.634000E+0	7.257612E+0	7.257612E-3	137.786369E-3	7.257612E-6
842	22.660000E+0	7.256472E+0	7.256472E-3	137.808014E-3	7.256472E-6
843	22.686000E+0	7.257024E+0	7.257024E-3	137.797527E-3	7.257024E-6
844	22.713000E+0	7.258626E+0	7.258626E-3	137.767117E-3	7.258626E-6
845	22.739000E+0	7.258399E+0	7.258399E-3	137.771421E-3	7.258399E-6
846	22.766000E+0	7.257812E+0	7.257812E-3	137.782577E-3	7.257812E-6
847	22.792000E+0	7.257694E+0	7.257694E-3	137.784813E-3	7.257694E-6
848	22.818000E+0	7.257604E+0	7.257604E-3	137.786528E-3	7.257604E-6
849	22.852000E+0	7.257787E+0	7.257787E-3	137.783045E-3	7.257787E-6
850	22.884000E+0	7.257951E+0	7.257951E-3	137.779933E-3	7.257951E-6
851	22.917000E+0	7.258074E+0	7.258074E-3	137.777600E-3	7.258074E-6
852	22.950000E+0	7.258033E+0	7.258033E-3	137.778378E-3	7.258033E-6
853	22.983000E+0	7.257798E+0	7.257798E-3	137.782842E-3	7.257798E-6
854	23.015000E+0	7.257112E+0	7.257112E-3	137.795865E-3	7.257112E-6
855	23.048000E+0	7.256814E+0	7.256814E-3	137.801524E-3	7.256814E-6
856	23.081000E+0	7.256341E+0	7.256341E-3	137.810499E-3	7.256341E-6
857	23.114000E+0	7.255734E+0	7.255734E-3	137.822024E-3	7.255734E-6
858	23.147000E+0	7.255773E+0	7.255773E-3	137.821299E-3	7.255773E-6
859	23.175000E+0	7.255827E+0	7.255827E-3	137.820263E-3	7.255827E-6
860	23.201000E+0	7.256232E+0	7.256232E-3	137.812578E-3	7.256232E-6
861	23.227000E+0	7.256057E+0	7.256057E-3	137.815903E-3	7.256057E-6
862	23.254000E+0	7.256018E+0	7.256018E-3	137.816628E-3	7.256018E-6
863	23.281000E+0	7.255896E+0	7.255896E-3	137.818963E-3	7.255896E-6
864	23.307000E+0	7.255679E+0	7.255679E-3	137.823068E-3	7.255679E-6
865	23.333000E+0	7.255549E+0	7.255549E-3	137.825553E-3	7.255549E-6
866	23.359000E+0	7.255270E+0	7.255270E-3	137.830852E-3	7.255270E-6
867	23.386000E+0	7.255617E+0	7.255617E-3	137.824262E-3	7.255617E-6
868	23.412000E+0	7.256180E+0	7.256180E-3	137.813568E-3	7.256180E-6
869	23.438000E+0	7.256792E+0	7.256792E-3	137.801939E-3	7.256792E-6
870	23.465000E+0	7.257360E+0	7.257360E-3	137.791143E-3	7.257360E-6
871	23.491000E+0	7.257415E+0	7.257415E-3	137.790100E-3	7.257415E-6
872	23.518000E+0	7.257369E+0	7.257369E-3	137.790984E-3	7.257369E-6
873	23.544000E+0	7.257399E+0	7.257399E-3	137.790418E-3	7.257399E-6
874	23.570000E+0	7.257929E+0	7.257929E-3	137.780349E-3	7.257929E-6
875	23.596000E+0	7.257855E+0	7.257856E-3	137.781746E-3	7.257856E-6
876	23.623000E+0	7.258066E+0	7.258066E-3	137.777759E-3	7.258066E-6
877	23.649000E+0	7.258178E+0	7.258178E-3	137.775629E-3	7.258178E-6
878	23.676000E+0	7.258287E+0	7.258287E-3	137.773551E-3	7.258287E-6
879	23.702000E+0	7.258486E+0	7.258486E-3	137.769768E-3	7.258486E-6
880	23.728000E+0	7.258596E+0	7.258596E-3	137.767691E-3	7.258596E-6
881	23.754000E+0	7.258369E+0	7.258369E-3	137.771996E-3	7.258369E-6
882	23.781000E+0	7.257825E+0	7.257825E-3	137.782320E-3	7.257825E-6
883	23.807000E+0	7.257732E+0	7.257732E-3	137.784088E-3	7.257732E-6
884	23.834000E+0	7.258093E+0	7.258093E-3	137.777237E-3	7.258093E-6
885	23.860000E+0	7.258148E+0	7.258148E-3	137.776194E-3	7.258148E-6
886	23.886000E+0	7.257831E+0	7.257831E-3	137.782214E-3	7.257831E-6
887	23.913000E+0	7.257454E+0	7.257454E-3	137.789375E-3	7.257454E-6
888	23.939000E+0	7.257820E+0	7.257820E-3	137.782426E-3	7.257820E-6
889	23.965000E+0	7.255245E+0	7.255245E-3	137.831321E-3	7.255245E-6
890	23.992000E+0	7.253840E+0	7.253840E-3	137.858015E-3	7.253840E-6
891	24.018000E+0	7.249344E+0	7.249344E-3	137.943522E-3	7.249344E-6
892	24.044000E+0	7.243243E+0	7.243243E-3	138.059705E-3	7.243243E-6
893	24.071000E+0	7.242672E+0	7.242672E-3	138.070597E-3	7.242672E-6
894	24.097000E+0	7.241980E+0	7.241980E-3	138.083780E-3	7.241980E-6
895	24.123000E+0	7.242328E+0	7.242328E-3	138.077157E-3	7.242328E-6
896	24.149000E+0	7.242708E+0	7.242708E-3	138.069913E-3	7.242708E-6
897	24.176000E+0	7.242136E+0	7.242136E-3	138.080806E-3	7.242136E-6
898	24.202000E+0	7.242188E+0	7.242188E-3	138.079812E-3	7.242188E-6
899	24.229000E+0	7.240493E+0	7.240493E-3	138.112136E-3	7.240493E-6
900	24.255000E+0	7.239411E+0	7.239411E-3	138.132782E-3	7.239411E-6
901	24.281000E+0	7.239023E+0	7.239023E-3	138.140184E-3	7.239023E-6
902	24.308000E+0	7.239255E+0	7.239255E-3	138.135759E-3	7.239255E-6
903	24.334000E+0	7.238392E+0	7.238392E-3	138.152235E-3	7.238392E-6
904	24.360000E+0	7.239635E+0	7.239635E-3	138.128509E-3	7.239635E-6
905	24.387000E+0	7.233406E+0	7.233406E-3	138.247460E-3	7.233406E-6
906	24.413000E+0	7.225135E+0	7.225135E-3	138.405712E-3	7.225135E-6
907	24.440000E+0	7.225474E+0	7.225474E-3	138.399218E-3	7.225474E-6
908	24.466000E+0	7.224130E+0	7.224130E-3	138.424982E-3	7.224130E-6
909	24.492000E+0	7.223599E+0	7.223599E-3	138.435146E-3	7.223599E-6
910	24.518000E+0	7.223214E+0	7.223214E-3	138.442536E-3	7.223214E-6
911	24.545000E+0	7.223378E+0	7.223378E-3	138.439385E-3	7.223378E-6
912	24.571000E+0	7.223214E+0	7.223214E-3	138.442536E-3	7.223214E-6
913	24.598000E+0	7.223033E+0	7.223033E-3	138.445990E-3	7.223033E-6
914	24.624000E+0	7.223156E+0	7.223156E-3	138.443633E-3	7.223156E-6
915	24.650000E+0	7.222432E+0	7.222432E-3	138.457513E-3	7.222432E-6
916	24.676000E+0	7.222541E+0	7.222541E-3	138.455425E-3	7.222541E-6
917	24.703000E+0	7.221336E+0	7.221336E-3	138.478531E-3	7.221336E-6
918	24.729000E+0	7.219811E+0	7.219811E-3	138.507781E-3	7.219811E-6
919	24.756000E+0	7.219062E+0	7.219062E-3	138.522157E-3	7.219062E-6
920	24.782000E+0	7.217818E+0	7.217818E-3	138.546018E-3	7.217818E-6
921	24.808000E+0	7.216902E+0	7.216902E-3	138.563602E-3	7.216902E-6
922	24.835000E+0	7.216009E+0	7.216009E-3	138.580761E-3	7.216009E-6
923	24.861000E+0	7.215708E+0	7.215708E-3	138.586539E-3	7.215708E-6
924	24.887000E+0	7.214956E+0	7.214956E-3	138.600975E-3	7.214956E-6
925	24.914000E+0	7.214511E+0	7.214511E-3	138.609537E-3	7.214511E-6
926	24.940000E+0	7.213401E+0	7.213401E-3	138.630860E-3	7.213401E-6
927	24.966000E+0	7.213082E+0	7.213082E-3	138.636999E-3	7.213082E-6
928	24.993000E+0	7.213139E+0	7.213139E-3	138.635898E-3	7.213139E-6
929	25.019000E+0	7.212819E+0	7.212819E-3	138.642047E-3	7.212819E-6
930	25.045000E+0	7.212346E+0	7.212346E-3	138.651133E-3	7.212346E-6
931	25.071000E+0	7.212510E+0	7.212510E-3	138.647982E-3	7.212510E-6
932	25.098000E+0	7.212871E+0	7.212871E-3	138.641045E-3	7.212871E-6
933	25.124000E+0	7.213330E+0	7.213330E-3	138.632220E-3	7.213330E-6
934	25.151000E+0	7.213008E+0	7.213008E-3	138.638422E-3	7.213008E-6
935	25.177000E+0	7.212953E+0	7.212953E-3	138.639469E-3	7.212953E-6
936	25.203000E+0	7.213098E+0	7.213098E-3	138.636686E-3	7.213098E-6
937	25.230000E+0	7.213049E+0	7.213049E-3	138.637634E-3	7.213049E-6
938	25.256000E+0	7.212286E+0	7.212286E-3	138.652287E-3	7.212286E-6
939	25.282000E+0	7.214538E+0	7.214538E-3	138.609009E-3	7.214538E-6
940	25.309000E+0	7.215514E+0	7.215514E-3	138.590259E-3	7.215514E-6
941	25.335000E+0	7.220046E+0	7.220046E-3	138.503270E-3	7.220046E-6
942	25.362000E+0	7.226357E+0	7.226357E-3	138.382309E-3	7.226357E-6
943	25.388000E+0	7.226876E+0	7.226876E-3	138.372367E-3	7.226876E-6
944	25.414000E+0	7.227297E+0	7.227297E-3	138.364307E-3	7.227297E-6
945	25.441000E+0	7.227576E+0	7.227576E-3	138.358977E-3	7.227576E-6
946	25.467000E+0	7.227718E+0	7.227718E-3	138.356249E-3	7.227718E-6
947	25.494000E+0	7.228098E+0	7.228098E-3	138.348975E-3	7.228098E-6
948	25.520000E+0	7.228156E+0	7.228156E-3	138.347879E-3	7.228156E-6
949	25.546000E+0	7.229823E+0	7.229823E-3	138.315979E-3	7.229823E-6
950	25.572000E+0	7.231097E+0	7.231097E-3	138.291609E-3	7.231097E-6
951	25.605000E+0	7.231433E+0	7.231433E-3	138.285179E-3	7.231433E-6
952	25.638000E+0	7.230823E+0	7.230823E-3	138.296836E-3	7.230823E-6
953	25.671000E+0	7.231657E+0	7.231657E-3	138.280896E-3	7.231657E-6
954	25.704000E+0	7.230703E+0	7.230703E-3	138.299143E-3	7.230703E-6
955	25.736000E+0	7.236973E+0	7.236973E-3	138.179320E-3	7.236973E-6
956	25.769000E+0	7.245370E+0	7.245370E-3	138.019182E-3	7.245370E-6
957	25.802000E+0	7.245318E+0	7.245318E-3	138.020175E-3	7.245318E-6
958	25.835000E+0	7.246244E+0	7.246244E-3	138.002525E-3	7.246244E-6
959	25.868000E+0	7.246600E+0	7.246600E-3	137.995759E-3	7.246600E-6
960	25.901000E+0	7.246772E+0	7.246772E-3	137.992478E-3	7.246772E-6
961	25.928000E+0	7.246758E+0	7.246758E-3	137.992735E-3	7.246758E-6
962	25.955000E+0	7.247201E+0	7.247201E-3	137.984303E-3	7.247201E-6
963	25.981000E+0	7.247510E+0	7.247510E-3	137.978425E-3	7.247510E-6
964	26.008000E+0	7.247874E+0	7.247874E-3	137.971501E-3	7.247874E-6
965	26.034000E+0	7.248795E+0	7.248795E-3	137.953970E-3	7.248795E-6
966	26.060000E+0	7.248461E+0	7.248461E-3	137.960315E-3	7.248461E-6
967	26.086000E+0	7.249527E+0	7.249527E-3	137.940031E-3	7.249527E-6
968	26.113000E+0	7.251066E+0	7.251066E-3	137.910763E-3	7.251066E-6
969	26.139000E+0	7.251590E+0	7.251590E-3	137.900782E-3	7.251590E-6
970	26.165000E+0	7.252665E+0	7.252665E-3	137.880356E-3	7.252665E-6
971	26.192000E+0	7.253537E+0	7.253537E-3	137.863777E-3	7.253537E-6
972	26.218000E+0	7.254428E+0	7.254428E-3	137.846848E-3	7.254428E-6
973	26.245000E+0	7.254783E+0	7.254783E-3	137.840097E-3	7.254783E-6
974	26.271000E+0	7.255119E+0	7.255119E-3	137.833709E-3	7.255119E-6
975	26.297000E+0	7.255540E+0	7.255540E-3	137.825712E-3	7.255540E-6
976	26.323000E+0	7.256059E+0	7.256059E-3	137.815850E-3	7.256059E-6
977	26.350000E+0	7.256120E+0	7.256120E-3	137.814709E-3	7.256120E-6
978	26.376000E+0	7.256177E+0	7.256177E-3	137.813613E-3	7.256177E-6
979	26.403000E+0	7.256475E+0	7.256475E-3	137.807961E-3	7.256475E-6
980	26.429000E+0	7.257131E+0	7.257131E-3	137.795502E-3	7.257131E-6
981	26.455000E+0	7.256819E+0	7.256819E-3	137.801418E-3	7.256819E-6
982	26.481000E+0	7.256398E+0	7.256398E-3	137.809412E-3	7.256398E-6
983	26.508000E+0	7.256229E+0	7.256229E-3	137.812631E-3	7.256229E-6
984	26.534000E+0	7.256352E+0	7.256352E-3	137.810296E-3	7.256352E-6
985	26.561000E+0	7.256316E+0	7.256316E-3	137.810968E-3	7.256316E-6
986	26.587000E+0	7.256349E+0	7.256349E-3	137.810349E-3	7.256349E-6
987	26.613000E+0	7.256636E+0	7.256636E-3	137.804893E-3	7.256636E-6
988	26.640000E+0	7.257117E+0	7.257117E-3	137.795759E-3	7.257117E-6
989	26.666000E+0	7.257492E+0	7.257492E-3	137.788650E-3	7.257492E-6
990	26.692000E+0	7.257951E+0	7.257951E-3	137.779933E-3	7.257951E-6
991	26.719000E+0	7.257694E+0	7.257694E-3	137.784813E-3	7.257694E-6
992	26.745000E+0	7.257331E+0	7.257331E-3	137.791709E-3	7.257331E-6
993	26.771000E+0	7.257312E+0	7.257312E-3	137.792072E-3	7.257312E-6
994	26.798000E+0	7.257156E+0	7.257156E-3	137.795033E-3	7.257156E-6
995	26.824000E+0	7.256994E+0	7.256994E-3	137.798093E-3	7.256994E-6
996	26.850000E+0	7.257295E+0	7.257295E-3	137.792390E-3	7.257295E-6
997	26.876000E+0	7.257451E+0	7.257451E-3	137.789428E-3	7.257451E-6
998	26.903000E+0	7.257325E+0	7.257325E-3	137.791815E-3	7.257325E-6
999	26.929000E+0	7.257514E+0	7.257514E-3	137.788235E-3	7.257514E-6
