Points	Time	Resistance	Delta Voltage	Conductance	Power
0	0.000000E+0	7.078846E+0	7.078846E-3	141.265964E-3	7.078846E-6
1	26.000000E-3	7.080264E+0	7.080264E-3	141.237664E-3	7.080264E-6
2	53.000000E-3	7.081096E+0	7.081096E-3	141.221085E-3	7.081096E-6
3	79.000000E-3	7.084025E+0	7.084025E-3	141.162685E-3	7.084025E-6
4	106.000000E-3	7.086493E+0	7.086493E-3	141.113523E-3	7.086493E-6
5	132.000000E-3	7.091276E+0	7.091276E-3	141.018347E-3	7.091276E-6
6	158.000000E-3	7.096141E+0	7.096141E-3	140.921671E-3	7.096141E-6
7	185.000000E-3	7.100055E+0	7.100055E-3	140.843989E-3	7.100055E-6
8	211.000000E-3	7.103381E+0	7.103381E-3	140.778037E-3	7.103381E-6
9	238.000000E-3	7.106018E+0	7.106018E-3	140.725785E-3	7.106018E-6
10	264.000000E-3	7.109311E+0	7.109311E-3	140.660599E-3	7.109311E-6
11	291.000000E-3	7.113750E+0	7.113750E-3	140.572833E-3	7.113750E-6
12	317.000000E-3	7.117942E+0	7.117942E-3	140.490037E-3	7.117942E-6
13	343.000000E-3	7.121487E+0	7.121487E-3	140.420111E-3	7.121487E-6
14	370.000000E-3	7.123075E+0	7.123075E-3	140.388808E-3	7.123075E-6
15	396.000000E-3	7.126814E+0	7.126814E-3	140.315158E-3	7.126814E-6
16	422.000000E-3	7.129973E+0	7.129973E-3	140.252980E-3	7.129973E-6
17	449.000000E-3	7.134406E+0	7.134406E-3	140.165832E-3	7.134406E-6
18	475.000000E-3	7.138555E+0	7.138555E-3	140.084374E-3	7.138555E-6
19	502.000000E-3	7.142663E+0	7.142663E-3	140.003805E-3	7.142663E-6
20	528.000000E-3	7.149077E+0	7.149077E-3	139.878187E-3	7.149077E-6
21	554.000000E-3	7.153237E+0	7.153237E-3	139.796845E-3	7.153237E-6
22	581.000000E-3	7.160332E+0	7.160332E-3	139.658328E-3	7.160332E-6
23	607.000000E-3	7.164995E+0	7.164995E-3	139.567444E-3	7.164995E-6
24	633.000000E-3	7.164620E+0	7.164620E-3	139.574737E-3	7.164620E-6
25	660.000000E-3	7.168466E+0	7.168466E-3	139.499864E-3	7.168466E-6
26	686.000000E-3	7.174836E+0	7.174836E-3	139.375999E-3	7.174836E-6
27	713.000000E-3	7.173465E+0	7.173465E-3	139.402653E-3	7.173465E-6
28	739.000000E-3	7.168501E+0	7.168501E-3	139.499176E-3	7.168501E-6
29	765.000000E-3	7.168695E+0	7.168695E-3	139.495397E-3	7.168695E-6
30	791.000000E-3	7.171488E+0	7.171488E-3	139.441068E-3	7.171488E-6
31	818.000000E-3	7.172210E+0	7.172210E-3	139.427036E-3	7.172210E-6
32	844.000000E-3	7.171409E+0	7.171409E-3	139.442608E-3	7.171409E-6
33	871.000000E-3	7.173407E+0	7.173407E-3	139.403775E-3	7.173407E-6
34	897.000000E-3	7.174946E+0	7.174946E-3	139.373873E-3	7.174946E-6
35	923.000000E-3	7.174774E+0	7.174774E-3	139.377220E-3	7.174774E-6
36	949.000000E-3	7.173412E+0	7.173412E-3	139.403666E-3	7.173412E-6
37	976.000000E-3	7.175399E+0	7.175399E-3	139.365063E-3	7.175399E-6
38	1.002000E+0	7.177433E+0	7.177433E-3	139.325578E-3	7.177433E-6
39	1.029000E+0	7.179597E+0	7.179597E-3	139.283576E-3	7.179597E-6
40	1.055000E+0	7.184399E+0	7.184399E-3	139.190482E-3	7.184399E-6
41	1.081000E+0	7.187253E+0	7.187253E-3	139.135219E-3	7.187253E-6
42	1.108000E+0	7.192238E+0	7.192238E-3	139.038785E-3	7.192238E-6
43	1.141000E+0	7.192429E+0	7.192429E-3	139.035085E-3	7.192429E-6
44	1.173000E+0	7.192104E+0	7.192104E-3	139.041377E-3	7.192104E-6
45	1.206000E+0	7.185520E+0	7.185520E-3	139.168779E-3	7.185520E-6
46	1.235000E+0	7.180259E+0	7.180259E-3	139.270749E-3	7.180259E-6
47	1.261000E+0	7.180740E+0	7.180740E-3	139.261420E-3	7.180740E-6
48	1.287000E+0	7.182123E+0	7.182123E-3	139.234603E-3	7.182123E-6
49	1.314000E+0	7.181478E+0	7.181478E-3	139.247107E-3	7.181478E-6
50	1.340000E+0	7.179682E+0	7.179682E-3	139.281932E-3	7.179682E-6
51	1.367000E+0	7.182918E+0	7.182918E-3	139.219186E-3	7.182918E-6
52	1.393000E+0	7.186348E+0	7.186348E-3	139.152736E-3	7.186348E-6
53	1.419000E+0	7.186657E+0	7.186657E-3	139.146758E-3	7.186657E-6
54	1.446000E+0	7.188031E+0	7.188031E-3	139.120148E-3	7.188031E-6
55	1.472000E+0	7.187398E+0	7.187398E-3	139.132415E-3	7.187398E-6
56	1.498000E+0	7.184424E+0	7.184424E-3	139.190004E-3	7.184424E-6
57	1.525000E+0	7.184834E+0	7.184834E-3	139.182065E-3	7.184834E-6
58	1.551000E+0	7.185506E+0	7.185506E-3	139.169041E-3	7.185506E-6
59	1.578000E+0	7.187048E+0	7.187048E-3	139.139194E-3	7.187048E-6
60	1.604000E+0	7.187745E+0	7.187745E-3	139.125700E-3	7.187745E-6
61	1.630000E+0	7.186774E+0	7.186774E-3	139.144486E-3	7.186774E-6
62	1.656000E+0	7.186058E+0	7.186058E-3	139.158345E-3	7.186058E-6
63	1.683000E+0	7.186490E+0	7.186490E-3	139.149986E-3	7.186490E-6
64	1.709000E+0	7.189737E+0	7.189737E-3	139.087152E-3	7.189737E-6
65	1.736000E+0	7.190789E+0	7.190789E-3	139.066796E-3	7.190789E-6
66	1.762000E+0	7.191740E+0	7.191740E-3	139.048400E-3	7.191740E-6
67	1.788000E+0	7.191418E+0	7.191418E-3	139.054639E-3	7.191418E-6
68	1.814000E+0	7.192568E+0	7.192568E-3	139.032394E-3	7.192568E-6
69	1.841000E+0	7.191543E+0	7.191543E-3	139.052208E-3	7.191543E-6
70	1.867000E+0	7.187113E+0	7.187113E-3	139.137923E-3	7.187113E-6
71	1.894000E+0	7.186851E+0	7.186851E-3	139.142999E-3	7.186851E-6
72	1.920000E+0	7.185935E+0	7.185935E-3	139.160735E-3	7.185935E-6
73	1.946000E+0	7.187034E+0	7.187034E-3	139.139456E-3	7.187034E-6
74	1.973000E+0	7.191139E+0	7.191139E-3	139.060033E-3	7.191139E-6
75	1.999000E+0	7.192727E+0	7.192727E-3	139.029333E-3	7.192727E-6
76	2.025000E+0	7.190480E+0	7.190480E-3	139.072767E-3	7.190480E-6
77	2.052000E+0	7.191606E+0	7.191606E-3	139.050993E-3	7.191606E-6
78	2.078000E+0	7.197521E+0	7.197521E-3	138.936731E-3	7.197521E-6
79	2.105000E+0	7.197346E+0	7.197346E-3	138.940111E-3	7.197346E-6
80	2.131000E+0	7.196690E+0	7.196690E-3	138.952769E-3	7.196690E-6
81	2.157000E+0	7.196660E+0	7.196660E-3	138.953354E-3	7.196660E-6
82	2.183000E+0	7.194695E+0	7.194695E-3	138.991306E-3	7.194695E-6
83	2.210000E+0	7.195965E+0	7.195965E-3	138.966761E-3	7.195965E-6
84	2.236000E+0	7.197745E+0	7.197745E-3	138.932408E-3	7.197745E-6
85	2.263000E+0	7.198704E+0	7.198704E-3	138.913895E-3	7.198704E-6
86	2.289000E+0	7.201123E+0	7.201123E-3	138.867237E-3	7.201123E-6
87	2.315000E+0	7.199262E+0	7.199262E-3	138.903130E-3	7.199262E-6
88	2.341000E+0	7.198917E+0	7.198917E-3	138.909779E-3	7.198917E-6
89	2.368000E+0	7.198756E+0	7.198756E-3	138.912888E-3	7.198756E-6
90	2.394000E+0	7.195821E+0	7.195821E-3	138.969557E-3	7.195821E-6
91	2.421000E+0	7.197679E+0	7.197679E-3	138.933675E-3	7.197679E-6
92	2.447000E+0	7.197381E+0	7.197381E-3	138.939419E-3	7.197381E-6
93	2.473000E+0	7.197245E+0	7.197245E-3	138.942062E-3	7.197245E-6
94	2.500000E+0	7.197551E+0	7.197551E-3	138.936156E-3	7.197551E-6
95	2.526000E+0	7.202959E+0	7.202959E-3	138.831830E-3	7.202959E-6
96	2.552000E+0	7.210598E+0	7.210598E-3	138.684746E-3	7.210598E-6
97	2.578000E+0	7.213277E+0	7.213277E-3	138.633249E-3	7.213277E-6
98	2.605000E+0	7.215269E+0	7.215269E-3	138.594973E-3	7.215269E-6
99	2.631000E+0	7.216789E+0	7.216789E-3	138.565784E-3	7.216789E-6
100	2.658000E+0	7.219153E+0	7.219153E-3	138.520414E-3	7.219153E-6
101	2.684000E+0	7.214222E+0	7.214222E-3	138.615084E-3	7.214222E-6
102	2.710000E+0	7.208983E+0	7.208983E-3	138.715823E-3	7.208983E-6
103	2.736000E+0	7.211353E+0	7.211353E-3	138.670239E-3	7.211353E-6
104	2.763000E+0	7.211476E+0	7.211476E-3	138.667875E-3	7.211476E-6
105	2.789000E+0	7.211842E+0	7.211842E-3	138.660837E-3	7.211842E-6
106	2.816000E+0	7.214329E+0	7.214329E-3	138.613035E-3	7.214329E-6
107	2.842000E+0	7.214988E+0	7.214988E-3	138.600376E-3	7.214988E-6
108	2.868000E+0	7.216376E+0	7.216376E-3	138.573715E-3	7.216376E-6
109	2.895000E+0	7.216805E+0	7.216805E-3	138.565471E-3	7.216805E-6
110	2.921000E+0	7.219472E+0	7.219472E-3	138.514276E-3	7.219472E-6
111	2.947000E+0	7.220052E+0	7.220052E-3	138.503163E-3	7.220052E-6
112	2.974000E+0	7.218625E+0	7.218625E-3	138.530530E-3	7.218625E-6
113	3.000000E+0	7.219803E+0	7.219803E-3	138.507933E-3	7.219803E-6
114	3.027000E+0	7.220104E+0	7.220104E-3	138.502163E-3	7.220104E-6
115	3.053000E+0	7.218885E+0	7.218885E-3	138.525552E-3	7.218885E-6
116	3.079000E+0	7.217089E+0	7.217089E-3	138.560017E-3	7.217089E-6
117	3.105000E+0	7.217168E+0	7.217168E-3	138.558497E-3	7.217168E-6
118	3.132000E+0	7.218027E+0	7.218027E-3	138.542023E-3	7.218027E-6
119	3.158000E+0	7.218849E+0	7.218849E-3	138.526231E-3	7.218849E-6
120	3.185000E+0	7.225051E+0	7.225051E-3	138.407335E-3	7.225051E-6
121	3.211000E+0	7.226084E+0	7.226084E-3	138.387544E-3	7.226084E-6
122	3.237000E+0	7.222151E+0	7.222151E-3	138.462905E-3	7.222151E-6
123	3.263000E+0	7.219011E+0	7.219011E-3	138.523140E-3	7.219011E-6
124	3.290000E+0	7.216985E+0	7.216985E-3	138.562011E-3	7.216985E-6
125	3.316000E+0	7.217073E+0	7.217073E-3	138.560330E-3	7.217073E-6
126	3.343000E+0	7.218570E+0	7.218570E-3	138.531584E-3	7.218570E-6
127	3.369000E+0	7.217286E+0	7.217286E-3	138.556236E-3	7.217286E-6
128	3.395000E+0	7.212235E+0	7.212235E-3	138.653272E-3	7.212235E-6
129	3.422000E+0	7.212902E+0	7.212902E-3	138.640445E-3	7.212902E-6
130	3.448000E+0	7.214190E+0	7.214190E-3	138.615710E-3	7.214190E-6
131	3.474000E+0	7.215559E+0	7.215559E-3	138.589410E-3	7.215559E-6
132	3.501000E+0	7.215777E+0	7.215777E-3	138.585206E-3	7.215777E-6
133	3.527000E+0	7.215556E+0	7.215556E-3	138.589454E-3	7.215556E-6
134	3.554000E+0	7.217565E+0	7.217565E-3	138.550890E-3	7.217565E-6
135	3.580000E+0	7.219325E+0	7.219325E-3	138.517109E-3	7.219325E-6
136	3.606000E+0	7.219234E+0	7.219234E-3	138.518842E-3	7.219234E-6
137	3.633000E+0	7.221003E+0	7.221003E-3	138.484916E-3	7.221003E-6
138	3.659000E+0	7.223815E+0	7.223815E-3	138.431005E-3	7.223815E-6
139	3.692000E+0	7.225220E+0	7.225220E-3	138.404088E-3	7.225220E-6
140	3.724000E+0	7.226726E+0	7.226726E-3	138.375247E-3	7.226726E-6
141	3.757000E+0	7.223542E+0	7.223542E-3	138.436244E-3	7.223542E-6
142	3.789000E+0	7.222238E+0	7.222238E-3	138.461227E-3	7.222238E-6
143	3.822000E+0	7.220552E+0	7.220552E-3	138.493570E-3	7.220552E-6
144	3.855000E+0	7.217526E+0	7.217526E-3	138.551623E-3	7.217526E-6
145	3.888000E+0	7.214832E+0	7.214832E-3	138.603373E-3	7.214832E-6
146	3.920000E+0	7.210467E+0	7.210467E-3	138.687272E-3	7.210467E-6
147	3.954000E+0	7.207078E+0	7.207078E-3	138.752489E-3	7.207078E-6
148	3.984000E+0	7.206627E+0	7.206627E-3	138.761168E-3	7.206627E-6
149	4.010000E+0	7.203561E+0	7.203561E-3	138.820235E-3	7.203561E-6
150	4.037000E+0	7.198909E+0	7.198909E-3	138.909941E-3	7.198909E-6
151	4.063000E+0	7.204635E+0	7.204635E-3	138.799544E-3	7.204635E-6
152	4.089000E+0	7.208499E+0	7.208499E-3	138.725133E-3	7.208499E-6
153	4.115000E+0	7.207209E+0	7.207209E-3	138.749961E-3	7.207209E-6
154	4.142000E+0	7.207078E+0	7.207078E-3	138.752489E-3	7.207078E-6
155	4.168000E+0	7.205272E+0	7.205272E-3	138.787273E-3	7.205272E-6
156	4.195000E+0	7.204370E+0	7.204370E-3	138.804649E-3	7.204370E-6
157	4.221000E+0	7.204690E+0	7.204690E-3	138.798486E-3	7.204690E-6
158	4.247000E+0	7.204555E+0	7.204555E-3	138.801069E-3	7.204555E-6
159	4.273000E+0	7.205231E+0	7.205231E-3	138.788062E-3	7.205231E-6
160	4.300000E+0	7.203473E+0	7.203473E-3	138.821922E-3	7.203473E-6
161	4.326000E+0	7.203473E+0	7.203473E-3	138.821922E-3	7.203473E-6
162	4.353000E+0	7.205455E+0	7.205455E-3	138.783748E-3	7.205455E-6
163	4.379000E+0	7.204236E+0	7.204236E-3	138.807233E-3	7.204236E-6
164	4.405000E+0	7.203998E+0	7.203998E-3	138.811809E-3	7.203998E-6
165	4.432000E+0	7.204695E+0	7.204695E-3	138.798387E-3	7.204695E-6
166	4.458000E+0	7.206269E+0	7.206269E-3	138.768063E-3	7.206269E-6
167	4.484000E+0	7.206936E+0	7.206936E-3	138.755223E-3	7.206936E-6
168	4.511000E+0	7.204635E+0	7.204635E-3	138.799544E-3	7.204635E-6
169	4.537000E+0	7.205370E+0	7.205370E-3	138.785380E-3	7.205370E-6
170	4.564000E+0	7.202773E+0	7.202773E-3	138.835411E-3	7.202773E-6
171	4.590000E+0	7.201664E+0	7.201664E-3	138.856804E-3	7.201664E-6
172	4.616000E+0	7.203533E+0	7.203533E-3	138.820764E-3	7.203533E-6
173	4.642000E+0	7.205318E+0	7.205318E-3	138.786385E-3	7.205318E-6
174	4.669000E+0	7.207026E+0	7.207026E-3	138.753484E-3	7.207026E-6
175	4.695000E+0	7.205895E+0	7.205895E-3	138.775273E-3	7.205895E-6
176	4.722000E+0	7.204127E+0	7.204127E-3	138.809332E-3	7.204127E-6
177	4.748000E+0	7.205640E+0	7.205640E-3	138.780169E-3	7.205640E-6
178	4.774000E+0	7.209213E+0	7.209213E-3	138.711405E-3	7.209213E-6
179	4.800000E+0	7.209559E+0	7.209559E-3	138.704731E-3	7.209559E-6
180	4.827000E+0	7.209628E+0	7.209628E-3	138.703414E-3	7.209628E-6
181	4.853000E+0	7.209355E+0	7.209355E-3	138.708673E-3	7.209355E-6
182	4.879000E+0	7.210445E+0	7.210445E-3	138.687693E-3	7.210445E-6
183	4.906000E+0	7.210683E+0	7.210683E-3	138.683116E-3	7.210683E-6
184	4.932000E+0	7.209710E+0	7.209710E-3	138.701837E-3	7.209710E-6
185	4.959000E+0	7.208573E+0	7.208573E-3	138.723708E-3	7.208573E-6
186	4.985000E+0	7.208745E+0	7.208745E-3	138.720401E-3	7.208745E-6
187	5.011000E+0	7.208854E+0	7.208854E-3	138.718296E-3	7.208854E-6
188	5.037000E+0	7.207242E+0	7.207242E-3	138.749333E-3	7.207242E-6
189	5.064000E+0	7.205542E+0	7.205542E-3	138.782062E-3	7.205542E-6
190	5.090000E+0	7.205036E+0	7.205036E-3	138.791803E-3	7.205036E-6
191	5.117000E+0	7.207608E+0	7.207608E-3	138.742278E-3	7.207608E-6
192	5.143000E+0	7.208830E+0	7.208830E-3	138.718771E-3	7.208830E-6
193	5.169000E+0	7.211404E+0	7.211404E-3	138.669245E-3	7.211404E-6
194	5.195000E+0	7.215365E+0	7.215365E-3	138.593130E-3	7.215365E-6
195	5.222000E+0	7.219098E+0	7.219098E-3	138.521460E-3	7.219098E-6
196	5.248000E+0	7.222227E+0	7.222227E-3	138.461441E-3	7.222227E-6
197	5.275000E+0	7.224936E+0	7.224936E-3	138.409539E-3	7.224936E-6
198	5.301000E+0	7.225157E+0	7.225157E-3	138.405293E-3	7.225157E-6
199	5.327000E+0	7.228428E+0	7.228429E-3	138.342656E-3	7.228429E-6
200	5.354000E+0	7.233411E+0	7.233411E-3	138.247362E-3	7.233411E-6
201	5.380000E+0	7.231012E+0	7.231012E-3	138.293238E-3	7.231012E-6
202	5.406000E+0	7.230129E+0	7.230129E-3	138.310126E-3	7.230129E-6
203	5.433000E+0	7.230345E+0	7.230345E-3	138.305993E-3	7.230345E-6
204	5.459000E+0	7.231203E+0	7.231203E-3	138.289578E-3	7.231203E-6
205	5.485000E+0	7.232632E+0	7.232632E-3	138.262253E-3	7.232632E-6
206	5.512000E+0	7.233780E+0	7.233780E-3	138.240314E-3	7.233780E-6
207	5.538000E+0	7.232837E+0	7.232837E-3	138.258337E-3	7.232837E-6
208	5.564000E+0	7.231342E+0	7.231342E-3	138.286916E-3	7.231342E-6
209	5.590000E+0	7.229918E+0	7.229918E-3	138.314152E-3	7.229918E-6
210	5.617000E+0	7.229164E+0	7.229164E-3	138.328585E-3	7.229164E-6
211	5.643000E+0	7.229713E+0	7.229713E-3	138.318072E-3	7.229713E-6
212	5.670000E+0	7.229888E+0	7.229888E-3	138.314731E-3	7.229888E-6
213	5.696000E+0	7.229585E+0	7.229585E-3	138.320531E-3	7.229585E-6
214	5.722000E+0	7.228696E+0	7.228696E-3	138.337532E-3	7.228696E-6
215	5.749000E+0	7.229511E+0	7.229511E-3	138.321939E-3	7.229511E-6
216	5.775000E+0	7.230490E+0	7.230490E-3	138.303223E-3	7.230490E-6
217	5.801000E+0	7.229817E+0	7.229817E-3	138.316085E-3	7.229817E-6
218	5.828000E+0	7.230547E+0	7.230547E-3	138.302127E-3	7.230547E-6
219	5.854000E+0	7.230845E+0	7.230845E-3	138.296427E-3	7.230845E-6
220	5.881000E+0	7.230367E+0	7.230367E-3	138.305574E-3	7.230367E-6
221	5.907000E+0	7.231082E+0	7.231082E-3	138.291885E-3	7.231082E-6
222	5.933000E+0	7.231006E+0	7.231006E-3	138.293345E-3	7.231006E-6
223	5.959000E+0	7.231099E+0	7.231099E-3	138.291573E-3	7.231099E-6
224	5.986000E+0	7.233138E+0	7.233138E-3	138.252587E-3	7.233138E-6
225	6.012000E+0	7.232613E+0	7.232613E-3	138.262618E-3	7.232613E-6
226	6.039000E+0	7.231416E+0	7.231416E-3	138.285508E-3	7.231416E-6
227	6.065000E+0	7.230443E+0	7.230443E-3	138.304113E-3	7.230443E-6
228	6.091000E+0	7.229743E+0	7.229743E-3	138.317502E-3	7.229743E-6
229	6.117000E+0	7.229323E+0	7.229323E-3	138.325547E-3	7.229323E-6
230	6.144000E+0	7.228746E+0	7.228746E-3	138.336588E-3	7.228746E-6
231	6.170000E+0	7.228251E+0	7.228251E-3	138.346052E-3	7.228251E-6
232	6.197000E+0	7.227852E+0	7.227852E-3	138.353691E-3	7.227852E-6
233	6.223000E+0	7.227423E+0	7.227423E-3	138.361909E-3	7.227423E-6
234	6.249000E+0	7.227065E+0	7.227065E-3	138.368756E-3	7.227065E-6
235	6.276000E+0	7.228333E+0	7.228333E-3	138.344483E-3	7.228333E-6
236	6.302000E+0	7.228257E+0	7.228257E-3	138.345945E-3	7.228257E-6
237	6.329000E+0	7.228817E+0	7.228817E-3	138.335224E-3	7.228817E-6
238	6.355000E+0	7.229066E+0	7.229066E-3	138.330466E-3	7.229066E-6
239	6.388000E+0	7.230161E+0	7.230161E-3	138.309502E-3	7.230161E-6
240	6.421000E+0	7.231222E+0	7.231222E-3	138.289213E-3	7.231222E-6
241	6.453000E+0	7.231274E+0	7.231274E-3	138.288225E-3	7.231274E-6
242	6.486000E+0	7.231566E+0	7.231566E-3	138.282632E-3	7.231566E-6
243	6.518000E+0	7.229954E+0	7.229954E-3	138.313475E-3	7.229954E-6
244	6.551000E+0	7.229634E+0	7.229634E-3	138.319587E-3	7.229634E-6
245	6.584000E+0	7.226630E+0	7.226630E-3	138.377084E-3	7.226630E-6
246	6.617000E+0	7.222074E+0	7.222074E-3	138.464379E-3	7.222074E-6
247	6.650000E+0	7.221306E+0	7.221306E-3	138.479102E-3	7.221306E-6
248	6.683000E+0	7.221640E+0	7.221640E-3	138.472709E-3	7.221640E-6
249	6.709000E+0	7.218486E+0	7.218486E-3	138.533211E-3	7.218486E-6
250	6.735000E+0	7.214217E+0	7.214217E-3	138.615182E-3	7.214217E-6
251	6.762000E+0	7.214873E+0	7.214873E-3	138.602585E-3	7.214873E-6
252	6.788000E+0	7.217207E+0	7.217207E-3	138.557764E-3	7.217207E-6
253	6.814000E+0	7.217048E+0	7.217048E-3	138.560804E-3	7.217048E-6
254	6.841000E+0	7.216395E+0	7.216395E-3	138.573348E-3	7.216395E-6
255	6.867000E+0	7.216122E+0	7.216122E-3	138.578597E-3	7.216122E-6
256	6.894000E+0	7.216155E+0	7.216155E-3	138.577962E-3	7.216155E-6
257	6.920000E+0	7.216718E+0	7.216718E-3	138.567152E-3	7.216718E-6
258	6.946000E+0	7.216854E+0	7.216854E-3	138.564532E-3	7.216854E-6
259	6.972000E+0	7.217627E+0	7.217627E-3	138.549683E-3	7.217627E-6
260	6.999000E+0	7.217488E+0	7.217488E-3	138.552356E-3	7.217488E-6
261	7.025000E+0	7.216734E+0	7.216734E-3	138.566839E-3	7.216734E-6
262	7.052000E+0	7.216690E+0	7.216690E-3	138.567679E-3	7.216690E-6
263	7.078000E+0	7.217748E+0	7.217748E-3	138.547368E-3	7.217748E-6
264	7.104000E+0	7.218918E+0	7.218918E-3	138.524918E-3	7.218918E-6
265	7.130000E+0	7.218155E+0	7.218155E-3	138.539556E-3	7.218155E-6
266	7.157000E+0	7.217092E+0	7.217092E-3	138.559964E-3	7.217092E-6
267	7.183000E+0	7.215602E+0	7.215602E-3	138.588569E-3	7.215602E-6
268	7.210000E+0	7.214895E+0	7.214895E-3	138.602165E-3	7.214895E-6
269	7.236000E+0	7.214449E+0	7.214449E-3	138.610726E-3	7.214449E-6
270	7.262000E+0	7.212998E+0	7.212998E-3	138.638610E-3	7.212998E-6
271	7.289000E+0	7.213268E+0	7.213268E-3	138.633410E-3	7.213268E-6
272	7.315000E+0	7.213301E+0	7.213301E-3	138.632783E-3	7.213301E-6
273	7.341000E+0	7.213646E+0	7.213646E-3	138.626161E-3	7.213646E-6
274	7.368000E+0	7.214121E+0	7.214121E-3	138.617025E-3	7.214121E-6
275	7.394000E+0	7.215168E+0	7.215168E-3	138.596914E-3	7.215168E-6
276	7.421000E+0	7.215433E+0	7.215433E-3	138.591825E-3	7.215433E-6
277	7.447000E+0	7.216696E+0	7.216696E-3	138.567572E-3	7.216696E-6
278	7.473000E+0	7.217988E+0	7.217988E-3	138.542756E-3	7.217988E-6
279	7.499000E+0	7.218508E+0	7.218508E-3	138.532791E-3	7.218508E-6
280	7.526000E+0	7.219822E+0	7.219822E-3	138.507567E-3	7.219822E-6
281	7.552000E+0	7.220683E+0	7.220683E-3	138.491051E-3	7.220683E-6
282	7.579000E+0	7.221140E+0	7.221140E-3	138.482299E-3	7.221140E-6
283	7.605000E+0	7.221320E+0	7.221320E-3	138.478834E-3	7.221320E-6
284	7.631000E+0	7.222457E+0	7.222457E-3	138.457040E-3	7.222457E-6
285	7.657000E+0	7.221233E+0	7.221233E-3	138.480513E-3	7.221233E-6
286	7.684000E+0	7.220101E+0	7.220101E-3	138.502216E-3	7.220101E-6
287	7.710000E+0	7.220076E+0	7.220076E-3	138.502690E-3	7.220076E-6
288	7.736000E+0	7.220945E+0	7.220945E-3	138.486023E-3	7.220945E-6
289	7.763000E+0	7.220227E+0	7.220227E-3	138.499804E-3	7.220227E-6
290	7.789000E+0	7.219218E+0	7.219218E-3	138.519155E-3	7.219218E-6
291	7.816000E+0	7.219689E+0	7.219688E-3	138.510131E-3	7.219688E-6
292	7.842000E+0	7.219628E+0	7.219628E-3	138.511283E-3	7.219628E-6
293	7.868000E+0	7.220702E+0	7.220702E-3	138.490685E-3	7.220702E-6
294	7.894000E+0	7.220956E+0	7.220957E-3	138.485809E-3	7.220957E-6
295	7.921000E+0	7.223343E+0	7.223343E-3	138.440063E-3	7.223343E-6
296	7.947000E+0	7.226466E+0	7.226466E-3	138.380222E-3	7.226466E-6
297	7.974000E+0	7.227808E+0	7.227808E-3	138.354528E-3	7.227808E-6
298	8.000000E+0	7.228188E+0	7.228188E-3	138.347255E-3	7.228188E-6
299	8.026000E+0	7.231440E+0	7.231440E-3	138.285037E-3	7.231440E-6
300	8.052000E+0	7.234466E+0	7.234466E-3	138.227207E-3	7.234466E-6
301	8.079000E+0	7.235595E+0	7.235595E-3	138.205643E-3	7.235595E-6
302	8.105000E+0	7.236387E+0	7.236387E-3	138.190507E-3	7.236387E-6
303	8.132000E+0	7.236970E+0	7.236970E-3	138.179383E-3	7.236970E-6
304	8.158000E+0	7.237767E+0	7.237767E-3	138.164154E-3	7.237767E-6
305	8.184000E+0	7.238546E+0	7.238546E-3	138.149284E-3	7.238546E-6
306	8.211000E+0	7.238877E+0	7.238877E-3	138.142974E-3	7.238877E-6
307	8.237000E+0	7.238585E+0	7.238585E-3	138.148555E-3	7.238585E-6
308	8.263000E+0	7.239058E+0	7.239058E-3	138.139526E-3	7.239058E-6
309	8.289000E+0	7.239186E+0	7.239186E-3	138.137083E-3	7.239186E-6
310	8.316000E+0	7.240208E+0	7.240208E-3	138.117581E-3	7.240208E-6
311	8.342000E+0	7.240930E+0	7.240930E-3	138.103814E-3	7.240930E-6
312	8.369000E+0	7.241266E+0	7.241266E-3	138.097402E-3	7.241266E-6
313	8.395000E+0	7.241506E+0	7.241506E-3	138.092820E-3	7.241506E-6
314	8.421000E+0	7.240902E+0	7.240902E-3	138.104338E-3	7.240902E-6
315	8.447000E+0	7.241372E+0	7.241372E-3	138.095368E-3	7.241372E-6
316	8.474000E+0	7.243174E+0	7.243174E-3	138.061028E-3	7.243174E-6
317	8.500000E+0	7.245854E+0	7.245854E-3	138.009948E-3	7.245854E-6
318	8.527000E+0	7.247169E+0	7.247169E-3	137.984914E-3	7.247169E-6
319	8.553000E+0	7.247678E+0	7.247678E-3	137.975233E-3	7.247678E-6
320	8.579000E+0	7.249274E+0	7.249274E-3	137.944851E-3	7.249274E-6
321	8.606000E+0	7.249107E+0	7.249107E-3	137.948024E-3	7.249107E-6
322	8.632000E+0	7.249536E+0	7.249536E-3	137.939863E-3	7.249536E-6
323	8.658000E+0	7.249542E+0	7.249542E-3	137.939756E-3	7.249542E-6
324	8.685000E+0	7.247822E+0	7.247822E-3	137.972476E-3	7.247822E-6
325	8.711000E+0	7.247976E+0	7.247976E-3	137.969560E-3	7.247976E-6
326	8.738000E+0	7.249533E+0	7.249533E-3	137.939916E-3	7.249533E-6
327	8.764000E+0	7.249350E+0	7.249350E-3	137.943398E-3	7.249350E-6
328	8.790000E+0	7.249878E+0	7.249878E-3	137.933360E-3	7.249878E-6
329	8.816000E+0	7.249323E+0	7.249323E-3	137.943921E-3	7.249323E-6
330	8.842000E+0	7.247008E+0	7.247008E-3	137.987982E-3	7.247008E-6
331	8.869000E+0	7.246926E+0	7.246926E-3	137.989543E-3	7.246926E-6
332	8.896000E+0	7.248099E+0	7.248099E-3	137.967220E-3	7.248099E-6
333	8.922000E+0	7.247997E+0	7.247997E-3	137.969143E-3	7.247997E-6
334	8.948000E+0	7.245838E+0	7.245838E-3	138.010258E-3	7.245838E-6
335	8.974000E+0	7.246532E+0	7.246532E-3	137.997036E-3	7.246532E-6
336	9.001000E+0	7.248033E+0	7.248033E-3	137.968470E-3	7.248033E-6
337	9.027000E+0	7.248599E+0	7.248599E-3	137.957701E-3	7.248599E-6
338	9.054000E+0	7.248932E+0	7.248932E-3	137.951356E-3	7.248932E-6
339	9.080000E+0	7.249916E+0	7.249916E-3	137.932633E-3	7.249916E-6
340	9.106000E+0	7.251766E+0	7.251766E-3	137.897444E-3	7.251766E-6
341	9.139000E+0	7.251903E+0	7.251903E-3	137.894840E-3	7.251903E-6
342	9.172000E+0	7.251558E+0	7.251558E-3	137.901393E-3	7.251558E-6
343	9.205000E+0	7.252037E+0	7.252037E-3	137.892299E-3	7.252037E-6
344	9.237000E+0	7.251955E+0	7.251955E-3	137.893858E-3	7.251955E-6
345	9.270000E+0	7.251512E+0	7.251512E-3	137.902279E-3	7.251512E-6
346	9.303000E+0	7.251936E+0	7.251936E-3	137.894221E-3	7.251936E-6
347	9.336000E+0	7.250884E+0	7.250884E-3	137.914226E-3	7.250884E-6
348	9.369000E+0	7.250222E+0	7.250222E-3	137.926813E-3	7.250222E-6
349	9.402000E+0	7.249848E+0	7.249848E-3	137.933935E-3	7.249848E-6
350	9.434000E+0	7.249525E+0	7.249525E-3	137.940067E-3	7.249525E-6
351	9.462000E+0	7.249200E+0	7.249200E-3	137.946260E-3	7.249200E-6
352	9.489000E+0	7.248746E+0	7.248746E-3	137.954892E-3	7.248746E-6
353	9.515000E+0	7.248402E+0	7.248402E-3	137.961450E-3	7.248402E-6
354	9.542000E+0	7.248443E+0	7.248443E-3	137.960670E-3	7.248443E-6
355	9.568000E+0	7.248437E+0	7.248437E-3	137.960767E-3	7.248437E-6
356	9.594000E+0	7.248612E+0	7.248612E-3	137.957444E-3	7.248612E-6
357	9.620000E+0	7.248875E+0	7.248875E-3	137.952446E-3	7.248875E-6
358	9.646000E+0	7.249255E+0	7.249255E-3	137.945215E-3	7.249255E-6
359	9.673000E+0	7.249304E+0	7.249304E-3	137.944284E-3	7.249304E-6
360	9.699000E+0	7.249129E+0	7.249129E-3	137.947607E-3	7.249129E-6
361	9.726000E+0	7.249648E+0	7.249648E-3	137.937727E-3	7.249648E-6
362	9.752000E+0	7.250006E+0	7.250006E-3	137.930914E-3	7.250006E-6
363	9.778000E+0	7.250318E+0	7.250318E-3	137.924988E-3	7.250318E-6
364	9.805000E+0	7.251118E+0	7.251118E-3	137.909762E-3	7.251118E-6
365	9.831000E+0	7.250531E+0	7.250531E-3	137.920940E-3	7.250531E-6
366	9.857000E+0	7.249577E+0	7.249577E-3	137.939083E-3	7.249577E-6
367	9.884000E+0	7.248724E+0	7.248724E-3	137.955308E-3	7.248724E-6
368	9.910000E+0	7.247959E+0	7.247959E-3	137.969870E-3	7.247959E-6
369	9.937000E+0	7.248046E+0	7.248046E-3	137.968213E-3	7.248046E-6
370	9.963000E+0	7.247481E+0	7.247481E-3	137.978983E-3	7.247481E-6
371	9.989000E+0	7.246896E+0	7.246896E-3	137.990119E-3	7.246896E-6
372	10.015000E+0	7.246240E+0	7.246240E-3	138.002605E-3	7.246240E-6
373	10.042000E+0	7.245212E+0	7.245212E-3	138.022180E-3	7.245212E-6
374	10.068000E+0	7.245702E+0	7.245702E-3	138.012857E-3	7.245702E-6
375	10.095000E+0	7.245669E+0	7.245669E-3	138.013487E-3	7.245669E-6
376	10.121000E+0	7.245977E+0	7.245977E-3	138.007607E-3	7.245977E-6
377	10.147000E+0	7.246489E+0	7.246489E-3	137.997869E-3	7.246489E-6
378	10.173000E+0	7.244917E+0	7.244917E-3	138.027804E-3	7.244917E-6
379	10.200000E+0	7.245078E+0	7.245078E-3	138.024735E-3	7.245078E-6
380	10.226000E+0	7.246161E+0	7.246161E-3	138.004112E-3	7.246161E-6
381	10.253000E+0	7.245702E+0	7.245702E-3	138.012857E-3	7.245702E-6
382	10.279000E+0	7.244996E+0	7.244996E-3	138.026296E-3	7.244996E-6
383	10.305000E+0	7.244876E+0	7.244876E-3	138.028585E-3	7.244876E-6
384	10.332000E+0	7.245915E+0	7.245915E-3	138.008804E-3	7.245915E-6
385	10.358000E+0	7.245863E+0	7.245863E-3	138.009788E-3	7.245863E-6
386	10.384000E+0	7.245087E+0	7.245087E-3	138.024575E-3	7.245087E-6
387	10.410000E+0	7.244663E+0	7.244663E-3	138.032648E-3	7.244663E-6
388	10.437000E+0	7.244625E+0	7.244625E-3	138.033376E-3	7.244625E-6
389	10.463000E+0	7.243649E+0	7.243649E-3	138.051966E-3	7.243649E-6
390	10.490000E+0	7.243105E+0	7.243105E-3	138.062333E-3	7.243105E-6
391	10.516000E+0	7.242138E+0	7.242138E-3	138.080779E-3	7.242138E-6
392	10.542000E+0	7.240744E+0	7.240744E-3	138.107358E-3	7.240744E-6
393	10.568000E+0	7.240293E+0	7.240293E-3	138.115965E-3	7.240293E-6
394	10.595000E+0	7.242077E+0	7.242078E-3	138.081925E-3	7.242078E-6
395	10.621000E+0	7.243403E+0	7.243403E-3	138.056652E-3	7.243403E-6
396	10.648000E+0	7.244617E+0	7.244617E-3	138.033527E-3	7.244617E-6
397	10.674000E+0	7.245732E+0	7.245732E-3	138.012290E-3	7.245732E-6
398	10.700000E+0	7.244597E+0	7.244597E-3	138.033899E-3	7.244597E-6
399	10.727000E+0	7.243578E+0	7.243578E-3	138.053324E-3	7.243578E-6
400	10.753000E+0	7.243196E+0	7.243196E-3	138.060611E-3	7.243196E-6
401	10.779000E+0	7.242960E+0	7.242960E-3	138.065093E-3	7.242960E-6
402	10.806000E+0	7.245196E+0	7.245196E-3	138.022490E-3	7.245196E-6
403	10.832000E+0	7.243573E+0	7.243573E-3	138.053422E-3	7.243573E-6
404	10.859000E+0	7.241796E+0	7.241796E-3	138.087288E-3	7.241796E-6
405	10.885000E+0	7.239976E+0	7.239976E-3	138.122005E-3	7.239976E-6
406	10.911000E+0	7.234395E+0	7.234395E-3	138.228559E-3	7.234395E-6
407	10.937000E+0	7.230853E+0	7.230853E-3	138.296275E-3	7.230853E-6
408	10.964000E+0	7.229612E+0	7.229612E-3	138.320005E-3	7.229612E-6
409	10.990000E+0	7.229590E+0	7.229590E-3	138.320424E-3	7.229590E-6
410	11.017000E+0	7.227877E+0	7.227877E-3	138.353218E-3	7.227877E-6
411	11.043000E+0	7.226130E+0	7.226130E-3	138.386661E-3	7.226130E-6
412	11.069000E+0	7.223908E+0	7.223908E-3	138.429221E-3	7.223908E-6
413	11.095000E+0	7.222621E+0	7.222621E-3	138.453898E-3	7.222621E-6
414	11.122000E+0	7.221531E+0	7.221531E-3	138.474798E-3	7.221531E-6
415	11.148000E+0	7.221730E+0	7.221730E-3	138.470977E-3	7.221730E-6
416	11.175000E+0	7.221790E+0	7.221790E-3	138.469825E-3	7.221790E-6
417	11.201000E+0	7.221790E+0	7.221790E-3	138.469825E-3	7.221790E-6
418	11.227000E+0	7.222091E+0	7.222091E-3	138.464057E-3	7.222091E-6
419	11.254000E+0	7.220593E+0	7.220593E-3	138.492784E-3	7.220593E-6
420	11.280000E+0	7.219426E+0	7.219426E-3	138.515170E-3	7.219426E-6
421	11.306000E+0	7.219095E+0	7.219095E-3	138.521513E-3	7.219095E-6
422	11.332000E+0	7.218737E+0	7.218737E-3	138.528385E-3	7.218737E-6
423	11.359000E+0	7.219207E+0	7.219207E-3	138.519360E-3	7.219207E-6
424	11.385000E+0	7.218316E+0	7.218316E-3	138.536464E-3	7.218316E-6
425	11.412000E+0	7.216961E+0	7.216961E-3	138.562485E-3	7.216961E-6
426	11.438000E+0	7.215190E+0	7.215190E-3	138.596494E-3	7.215190E-6
427	11.464000E+0	7.214389E+0	7.214389E-3	138.611881E-3	7.214389E-6
428	11.490000E+0	7.215772E+0	7.215772E-3	138.585314E-3	7.215772E-6
429	11.517000E+0	7.215378E+0	7.215378E-3	138.592871E-3	7.215378E-6
430	11.543000E+0	7.215302E+0	7.215302E-3	138.594338E-3	7.215302E-6
431	11.570000E+0	7.214572E+0	7.214572E-3	138.608356E-3	7.214572E-6
432	11.596000E+0	7.214925E+0	7.214925E-3	138.601583E-3	7.214925E-6
433	11.622000E+0	7.216105E+0	7.216105E-3	138.578910E-3	7.216105E-6
434	11.649000E+0	7.218027E+0	7.218027E-3	138.542023E-3	7.218027E-6
435	11.675000E+0	7.216264E+0	7.216264E-3	138.575861E-3	7.216264E-6
436	11.702000E+0	7.211377E+0	7.211377E-3	138.669764E-3	7.211377E-6
437	11.728000E+0	7.211178E+0	7.211178E-3	138.673606E-3	7.211178E-6
438	11.754000E+0	7.211358E+0	7.211358E-3	138.670140E-3	7.211358E-6
439	11.781000E+0	7.211508E+0	7.211508E-3	138.667248E-3	7.211508E-6
440	11.807000E+0	7.211375E+0	7.211375E-3	138.669818E-3	7.211375E-6
441	11.834000E+0	7.212462E+0	7.212462E-3	138.648904E-3	7.212462E-6
442	11.860000E+0	7.215955E+0	7.215955E-3	138.581799E-3	7.215955E-6
443	11.892000E+0	7.216819E+0	7.216819E-3	138.565212E-3	7.216819E-6
444	11.925000E+0	7.214260E+0	7.214260E-3	138.614350E-3	7.214260E-6
445	11.958000E+0	7.211604E+0	7.211604E-3	138.665403E-3	7.211604E-6
446	11.991000E+0	7.213941E+0	7.213941E-3	138.620488E-3	7.213941E-6
447	12.023000E+0	7.202771E+0	7.202771E-3	138.835465E-3	7.202771E-6
448	12.057000E+0	7.188409E+0	7.188409E-3	139.112848E-3	7.188409E-6
449	12.089000E+0	7.183702E+0	7.183702E-3	139.203989E-3	7.183702E-6
450	12.122000E+0	7.172357E+0	7.172357E-3	139.424175E-3	7.172357E-6
451	12.155000E+0	7.157211E+0	7.157211E-3	139.719234E-3	7.157211E-6
452	12.188000E+0	7.145347E+0	7.145347E-3	139.951223E-3	7.145347E-6
453	12.216000E+0	7.140124E+0	7.140124E-3	140.053595E-3	7.140124E-6
454	12.242000E+0	7.137224E+0	7.137224E-3	140.110495E-3	7.137224E-6
455	12.269000E+0	7.137295E+0	7.137295E-3	140.109106E-3	7.137295E-6
456	12.295000E+0	7.138894E+0	7.138894E-3	140.077722E-3	7.138894E-6
457	12.321000E+0	7.140173E+0	7.140173E-3	140.052627E-3	7.140173E-6
458	12.348000E+0	7.138022E+0	7.138022E-3	140.094829E-3	7.138022E-6
459	12.374000E+0	7.137022E+0	7.137022E-3	140.114472E-3	7.137022E-6
460	12.401000E+0	7.140154E+0	7.140154E-3	140.053010E-3	7.140154E-6
461	12.427000E+0	7.139432E+0	7.139432E-3	140.067160E-3	7.139432E-6
462	12.453000E+0	7.141635E+0	7.141635E-3	140.023952E-3	7.141635E-6
463	12.479000E+0	7.139867E+0	7.139867E-3	140.058637E-3	7.139867E-6
464	12.506000E+0	7.137489E+0	7.137489E-3	140.105294E-3	7.137489E-6
465	12.532000E+0	7.136448E+0	7.136448E-3	140.125736E-3	7.136448E-6
466	12.559000E+0	7.130938E+0	7.130938E-3	140.234003E-3	7.130938E-6
467	12.585000E+0	7.128795E+0	7.128795E-3	140.276159E-3	7.128795E-6
468	12.611000E+0	7.132520E+0	7.132520E-3	140.202893E-3	7.132520E-6
469	12.637000E+0	7.130036E+0	7.130036E-3	140.251744E-3	7.130036E-6
470	12.664000E+0	7.123264E+0	7.123264E-3	140.385091E-3	7.123264E-6
471	12.690000E+0	7.118784E+0	7.118784E-3	140.473431E-3	7.118784E-6
472	12.717000E+0	7.120057E+0	7.120057E-3	140.448305E-3	7.120057E-6
473	12.743000E+0	7.115909E+0	7.115909E-3	140.530186E-3	7.115909E-6
474	12.769000E+0	7.108721E+0	7.108721E-3	140.672282E-3	7.108721E-6
475	12.796000E+0	7.104102E+0	7.104102E-3	140.763743E-3	7.104102E-6
476	12.822000E+0	7.098570E+0	7.098570E-3	140.873434E-3	7.098570E-6
477	12.848000E+0	7.095181E+0	7.095181E-3	140.940724E-3	7.095181E-6
478	12.874000E+0	7.099669E+0	7.099669E-3	140.851638E-3	7.099669E-6
479	12.901000E+0	7.103006E+0	7.103006E-3	140.785467E-3	7.103006E-6
480	12.927000E+0	7.090639E+0	7.090639E-3	141.031016E-3	7.090639E-6
481	12.954000E+0	7.089283E+0	7.089283E-3	141.057982E-3	7.089283E-6
482	12.980000E+0	7.089111E+0	7.089111E-3	141.061401E-3	7.089111E-6
483	13.006000E+0	7.085999E+0	7.085999E-3	141.123371E-3	7.085999E-6
484	13.032000E+0	7.083052E+0	7.083052E-3	141.182072E-3	7.083052E-6
485	13.059000E+0	7.082003E+0	7.082003E-3	141.202996E-3	7.082003E-6
486	13.085000E+0	7.084137E+0	7.084137E-3	141.160449E-3	7.084137E-6
487	13.112000E+0	7.079843E+0	7.079843E-3	141.246061E-3	7.079843E-6
488	13.138000E+0	7.080199E+0	7.080199E-3	141.238973E-3	7.080199E-6
489	13.164000E+0	7.080163E+0	7.080163E-3	141.239679E-3	7.080163E-6
490	13.191000E+0	7.085063E+0	7.085063E-3	141.141996E-3	7.085063E-6
491	13.217000E+0	7.089598E+0	7.089598E-3	141.051728E-3	7.089598E-6
492	13.243000E+0	7.082711E+0	7.082711E-3	141.188885E-3	7.082711E-6
493	13.270000E+0	7.073882E+0	7.073882E-3	141.365085E-3	7.073882E-6
494	13.296000E+0	7.075733E+0	7.075733E-3	141.328113E-3	7.075733E-6
495	13.323000E+0	7.070262E+0	7.070262E-3	141.437484E-3	7.070262E-6
496	13.349000E+0	7.050168E+0	7.050168E-3	141.840596E-3	7.050168E-6
497	13.375000E+0	7.047979E+0	7.047979E-3	141.884651E-3	7.047979E-6
498	13.401000E+0	7.048889E+0	7.048889E-3	141.866327E-3	7.048889E-6
499	13.428000E+0	7.046257E+0	7.046257E-3	141.919317E-3	7.046257E-6
500	13.454000E+0	7.042972E+0	7.042972E-3	141.985516E-3	7.042972E-6
501	13.481000E+0	7.046639E+0	7.046639E-3	141.911617E-3	7.046639E-6
502	13.507000E+0	7.048897E+0	7.048897E-3	141.866168E-3	7.048897E-6
503	13.533000E+0	7.039998E+0	7.039998E-3	142.045491E-3	7.039998E-6
504	13.559000E+0	7.036358E+0	7.036358E-3	142.118984E-3	7.036358E-6
505	13.586000E+0	7.033231E+0	7.033231E-3	142.182159E-3	7.033231E-6
506	13.612000E+0	7.024477E+0	7.024477E-3	142.359348E-3	7.024477E-6
507	13.639000E+0	7.022176E+0	7.022176E-3	142.406002E-3	7.022176E-6
508	13.665000E+0	7.034210E+0	7.034210E-3	142.162384E-3	7.034210E-6
509	13.691000E+0	7.032425E+0	7.032425E-3	142.198456E-3	7.032425E-6
510	13.718000E+0	7.015191E+0	7.015191E-3	142.547793E-3	7.015191E-6
511	13.744000E+0	7.014016E+0	7.014016E-3	142.571670E-3	7.014016E-6
512	13.770000E+0	7.013262E+0	7.013262E-3	142.587006E-3	7.013262E-6
513	13.797000E+0	7.010387E+0	7.010387E-3	142.645472E-3	7.010387E-6
514	13.823000E+0	7.011079E+0	7.011079E-3	142.631403E-3	7.011079E-6
515	13.850000E+0	7.015340E+0	7.015340E-3	142.544756E-3	7.015341E-6
516	13.876000E+0	7.015800E+0	7.015800E-3	142.535427E-3	7.015800E-6
517	13.902000E+0	7.013862E+0	7.013862E-3	142.574794E-3	7.013862E-6
518	13.928000E+0	7.007427E+0	7.007427E-3	142.705741E-3	7.007427E-6
519	13.954000E+0	7.007375E+0	7.007375E-3	142.706793E-3	7.007375E-6
520	13.981000E+0	7.016312E+0	7.016312E-3	142.525012E-3	7.016312E-6
521	14.008000E+0	7.017919E+0	7.017919E-3	142.492376E-3	7.017919E-6
522	14.034000E+0	7.010590E+0	7.010590E-3	142.641351E-3	7.010590E-6
523	14.060000E+0	7.013495E+0	7.013495E-3	142.582263E-3	7.013495E-6
524	14.086000E+0	7.021520E+0	7.021520E-3	142.419309E-3	7.021520E-6
525	14.113000E+0	7.022717E+0	7.022717E-3	142.395029E-3	7.022717E-6
526	14.139000E+0	7.026650E+0	7.026650E-3	142.315318E-3	7.026650E-6
527	14.165000E+0	7.030305E+0	7.030305E-3	142.241340E-3	7.030305E-6
528	14.192000E+0	7.020551E+0	7.020551E-3	142.438967E-3	7.020551E-6
529	14.218000E+0	7.011521E+0	7.011521E-3	142.622404E-3	7.011521E-6
530	14.245000E+0	7.018800E+0	7.018800E-3	142.474499E-3	7.018800E-6
531	14.271000E+0	7.012965E+0	7.012965E-3	142.593037E-3	7.012965E-6
532	14.297000E+0	7.005857E+0	7.005857E-3	142.737715E-3	7.005857E-6
533	14.323000E+0	7.006926E+0	7.006926E-3	142.715945E-3	7.006926E-6
534	14.350000E+0	7.005188E+0	7.005188E-3	142.751350E-3	7.005188E-6
535	14.376000E+0	7.005019E+0	7.005019E-3	142.754795E-3	7.005019E-6
536	14.403000E+0	7.007815E+0	7.007815E-3	142.697832E-3	7.007815E-6
537	14.429000E+0	7.009753E+0	7.009753E-3	142.658378E-3	7.009753E-6
538	14.455000E+0	7.001921E+0	7.001921E-3	142.817958E-3	7.001921E-6
539	14.482000E+0	7.000781E+0	7.000781E-3	142.841203E-3	7.000781E-6
540	14.508000E+0	6.995914E+0	6.995914E-3	142.940588E-3	6.995914E-6
541	14.535000E+0	6.990811E+0	6.990811E-3	143.044913E-3	6.990811E-6
542	14.561000E+0	6.993009E+0	6.993009E-3	142.999963E-3	6.993009E-6
543	14.587000E+0	6.995427E+0	6.995427E-3	142.950522E-3	6.995427E-6
544	14.614000E+0	6.991369E+0	6.991369E-3	143.033499E-3	6.991369E-6
545	14.647000E+0	6.993955E+0	6.993955E-3	142.980626E-3	6.993955E-6
546	14.679000E+0	7.010377E+0	7.010377E-3	142.645671E-3	7.010377E-6
547	14.712000E+0	7.013225E+0	7.013225E-3	142.587744E-3	7.013225E-6
548	14.745000E+0	7.005893E+0	7.005893E-3	142.736985E-3	7.005893E-6
549	14.778000E+0	6.998010E+0	6.998010E-3	142.897757E-3	6.998010E-6
550	14.811000E+0	7.004217E+0	7.004217E-3	142.771129E-3	7.004217E-6
551	14.844000E+0	7.008568E+0	7.008568E-3	142.682492E-3	7.008568E-6
552	14.876000E+0	7.008998E+0	7.008998E-3	142.673752E-3	7.008998E-6
553	14.909000E+0	7.015614E+0	7.015614E-3	142.539193E-3	7.015614E-6
554	14.942000E+0	7.021428E+0	7.021428E-3	142.421179E-3	7.021428E-6
555	14.970000E+0	7.026492E+0	7.026492E-3	142.318525E-3	7.026492E-6
556	14.996000E+0	7.032464E+0	7.032464E-3	142.197665E-3	7.032464E-6
557	15.023000E+0	7.033448E+0	7.033448E-3	142.177773E-3	7.033448E-6
558	15.049000E+0	7.029628E+0	7.029628E-3	142.255040E-3	7.029628E-6
559	15.076000E+0	7.032438E+0	7.032438E-3	142.198202E-3	7.032438E-6
560	15.102000E+0	7.042386E+0	7.042386E-3	141.997327E-3	7.042386E-6
561	15.128000E+0	7.044259E+0	7.044259E-3	141.959583E-3	7.044259E-6
562	15.154000E+0	7.045171E+0	7.045171E-3	141.941192E-3	7.045171E-6
563	15.181000E+0	7.052673E+0	7.052673E-3	141.790202E-3	7.052673E-6
564	15.207000E+0	7.056104E+0	7.056104E-3	141.721267E-3	7.056104E-6
565	15.234000E+0	7.049987E+0	7.049987E-3	141.844231E-3	7.049987E-6
566	15.260000E+0	7.050969E+0	7.050969E-3	141.824484E-3	7.050969E-6
567	15.286000E+0	7.054301E+0	7.054301E-3	141.757499E-3	7.054301E-6
568	15.313000E+0	7.054459E+0	7.054459E-3	141.754309E-3	7.054459E-6
569	15.339000E+0	7.051254E+0	7.051254E-3	141.818752E-3	7.051254E-6
570	15.365000E+0	7.044530E+0	7.044530E-3	141.954102E-3	7.044530E-6
571	15.392000E+0	7.045689E+0	7.045689E-3	141.930751E-3	7.045689E-6
572	15.418000E+0	7.049973E+0	7.049973E-3	141.844522E-3	7.049973E-6
573	15.445000E+0	7.051228E+0	7.051228E-3	141.819277E-3	7.051228E-6
574	15.471000E+0	7.047516E+0	7.047516E-3	141.893961E-3	7.047516E-6
575	15.497000E+0	7.047410E+0	7.047410E-3	141.896108E-3	7.047410E-6
576	15.523000E+0	7.048738E+0	7.048738E-3	141.869363E-3	7.048738E-6
577	15.550000E+0	7.049220E+0	7.049220E-3	141.859673E-3	7.049220E-6
578	15.576000E+0	7.055498E+0	7.055498E-3	141.733445E-3	7.055498E-6
579	15.603000E+0	7.056878E+0	7.056878E-3	141.705724E-3	7.056878E-6
580	15.629000E+0	7.054867E+0	7.054867E-3	141.746121E-3	7.054867E-6
581	15.655000E+0	7.056996E+0	7.056996E-3	141.703358E-3	7.056996E-6
582	15.681000E+0	7.060478E+0	7.060478E-3	141.633471E-3	7.060478E-6
583	15.708000E+0	7.060812E+0	7.060812E-3	141.626773E-3	7.060812E-6
584	15.734000E+0	7.065502E+0	7.065502E-3	141.532760E-3	7.065502E-6
585	15.761000E+0	7.065319E+0	7.065319E-3	141.536426E-3	7.065319E-6
586	15.787000E+0	7.059380E+0	7.059380E-3	141.655491E-3	7.059380E-6
587	15.813000E+0	7.063292E+0	7.063292E-3	141.577044E-3	7.063292E-6
588	15.840000E+0	7.066569E+0	7.066569E-3	141.511384E-3	7.066569E-6
589	15.866000E+0	7.068185E+0	7.068185E-3	141.479033E-3	7.068185E-6
590	15.892000E+0	7.070233E+0	7.070233E-3	141.438061E-3	7.070233E-6
591	15.919000E+0	7.063447E+0	7.063447E-3	141.573946E-3	7.063447E-6
592	15.945000E+0	7.055838E+0	7.055838E-3	141.726607E-3	7.055838E-6
593	15.971000E+0	7.059261E+0	7.059261E-3	141.657893E-3	7.059261E-6
594	15.998000E+0	7.063921E+0	7.063921E-3	141.564445E-3	7.063921E-6
595	16.024000E+0	7.066179E+0	7.066179E-3	141.519208E-3	7.066179E-6
596	16.050000E+0	7.064736E+0	7.064736E-3	141.548106E-3	7.064736E-6
597	16.076000E+0	7.074051E+0	7.074051E-3	141.361725E-3	7.074051E-6
598	16.103000E+0	7.092105E+0	7.092105E-3	141.001856E-3	7.092105E-6
599	16.129000E+0	7.105714E+0	7.105714E-3	140.731817E-3	7.105714E-6
600	16.156000E+0	7.115738E+0	7.115738E-3	140.533552E-3	7.115738E-6
601	16.182000E+0	7.122249E+0	7.122249E-3	140.405091E-3	7.122249E-6
602	16.208000E+0	7.132370E+0	7.132370E-3	140.205859E-3	7.132370E-6
603	16.235000E+0	7.133583E+0	7.133583E-3	140.182008E-3	7.133583E-6
604	16.261000E+0	7.130123E+0	7.130123E-3	140.250031E-3	7.130123E-6
605	16.287000E+0	7.131588E+0	7.131588E-3	140.221221E-3	7.131588E-6
606	16.314000E+0	7.128839E+0	7.128839E-3	140.275297E-3	7.128839E-6
607	16.340000E+0	7.122736E+0	7.122736E-3	140.395480E-3	7.122736E-6
608	16.367000E+0	7.113636E+0	7.113636E-3	140.575096E-3	7.113636E-6
609	16.393000E+0	7.110733E+0	7.110733E-3	140.632476E-3	7.110733E-6
610	16.419000E+0	7.104234E+0	7.104234E-3	140.761132E-3	7.104234E-6
611	16.445000E+0	7.096532E+0	7.096532E-3	140.913904E-3	7.096532E-6
612	16.472000E+0	7.094807E+0	7.094807E-3	140.948161E-3	7.094807E-6
613	16.498000E+0	7.090880E+0	7.090880E-3	141.026228E-3	7.090880E-6
614	16.525000E+0	7.086591E+0	7.086591E-3	141.111566E-3	7.086591E-6
615	16.551000E+0	7.087187E+0	7.087187E-3	141.099708E-3	7.087187E-6
616	16.577000E+0	7.087542E+0	7.087542E-3	141.092643E-3	7.087542E-6
617	16.603000E+0	7.086945E+0	7.086945E-3	141.104519E-3	7.086945E-6
618	16.630000E+0	7.085841E+0	7.085841E-3	141.126515E-3	7.085841E-6
619	16.656000E+0	7.087037E+0	7.087037E-3	141.102684E-3	7.087037E-6
620	16.682000E+0	7.094075E+0	7.094075E-3	140.962715E-3	7.094075E-6
621	16.709000E+0	7.090532E+0	7.090532E-3	141.033146E-3	7.090532E-6
622	16.735000E+0	7.083348E+0	7.083348E-3	141.176169E-3	7.083348E-6
623	16.762000E+0	7.080552E+0	7.080552E-3	141.231923E-3	7.080552E-6
624	16.788000E+0	7.085739E+0	7.085739E-3	141.128546E-3	7.085739E-6
625	16.814000E+0	7.091114E+0	7.091114E-3	141.021560E-3	7.091114E-6
626	16.840000E+0	7.092048E+0	7.092048E-3	141.002986E-3	7.092048E-6
627	16.867000E+0	7.088208E+0	7.088208E-3	141.079389E-3	7.088208E-6
628	16.893000E+0	7.083717E+0	7.083717E-3	141.168828E-3	7.083717E-6
629	16.920000E+0	7.092369E+0	7.092369E-3	140.996607E-3	7.092369E-6
630	16.946000E+0	7.098868E+0	7.098868E-3	140.867529E-3	7.098868E-6
631	16.972000E+0	7.098698E+0	7.098698E-3	140.870902E-3	7.098698E-6
632	16.998000E+0	7.101652E+0	7.101652E-3	140.812312E-3	7.101652E-6
633	17.025000E+0	7.096549E+0	7.096549E-3	140.913571E-3	7.096549E-6
634	17.051000E+0	7.091052E+0	7.091052E-3	141.022801E-3	7.091052E-6
635	17.078000E+0	7.094544E+0	7.094544E-3	140.953379E-3	7.094544E-6
636	17.104000E+0	7.102076E+0	7.102076E-3	140.803901E-3	7.102076E-6
637	17.130000E+0	7.098684E+0	7.098684E-3	140.871189E-3	7.098684E-6
638	17.157000E+0	7.089366E+0	7.089366E-3	141.056333E-3	7.089366E-6
639	17.183000E+0	7.086193E+0	7.086193E-3	141.119504E-3	7.086193E-6
640	17.210000E+0	7.084834E+0	7.084834E-3	141.146569E-3	7.084834E-6
641	17.236000E+0	7.090841E+0	7.090841E-3	141.026996E-3	7.090841E-6
642	17.262000E+0	7.099067E+0	7.099067E-3	140.863584E-3	7.099067E-6
643	17.289000E+0	7.101988E+0	7.101988E-3	140.805637E-3	7.101988E-6
644	17.315000E+0	7.103024E+0	7.103024E-3	140.785116E-3	7.103024E-6
645	17.341000E+0	7.101971E+0	7.101971E-3	140.805978E-3	7.101971E-6
646	17.368000E+0	7.116445E+0	7.116445E-3	140.519602E-3	7.116445E-6
647	17.400000E+0	7.126478E+0	7.126478E-3	140.321769E-3	7.126478E-6
648	17.433000E+0	7.122756E+0	7.122756E-3	140.395104E-3	7.122756E-6
649	17.465000E+0	7.120766E+0	7.120766E-3	140.434326E-3	7.120766E-6
650	17.497000E+0	7.121542E+0	7.121542E-3	140.419018E-3	7.121542E-6
651	17.530000E+0	7.087095E+0	7.087095E-3	141.101534E-3	7.087095E-6
652	17.563000E+0	7.033943E+0	7.033943E-3	142.167767E-3	7.033943E-6
653	17.595000E+0	7.020311E+0	7.020311E-3	142.443823E-3	7.020311E-6
654	17.628000E+0	7.015674E+0	7.015674E-3	142.537972E-3	7.015674E-6
655	17.660000E+0	7.004745E+0	7.004745E-3	142.760366E-3	7.004745E-6
656	17.693000E+0	7.001253E+0	7.001253E-3	142.831570E-3	7.001253E-6
657	17.720000E+0	6.989668E+0	6.989668E-3	143.068309E-3	6.989668E-6
658	17.747000E+0	6.972620E+0	6.972620E-3	143.418107E-3	6.972620E-6
659	17.773000E+0	6.972448E+0	6.972448E-3	143.421642E-3	6.972448E-6
660	17.800000E+0	6.978369E+0	6.978369E-3	143.299954E-3	6.978369E-6
661	17.826000E+0	6.985156E+0	6.985156E-3	143.160719E-3	6.985156E-6
662	17.852000E+0	6.990894E+0	6.990894E-3	143.043227E-3	6.990894E-6
663	17.878000E+0	7.009422E+0	7.009422E-3	142.665117E-3	7.009422E-6
664	17.905000E+0	7.008469E+0	7.008469E-3	142.684520E-3	7.008469E-6
665	17.931000E+0	6.996504E+0	6.996504E-3	142.928525E-3	6.996504E-6
666	17.957000E+0	6.997382E+0	6.997382E-3	142.910596E-3	6.997382E-6
667	17.984000E+0	6.994964E+0	6.994964E-3	142.960000E-3	6.994964E-6
668	18.010000E+0	6.996445E+0	6.996445E-3	142.929733E-3	6.996445E-6
669	18.037000E+0	7.003114E+0	7.003114E-3	142.793618E-3	7.003114E-6
670	18.063000E+0	7.000788E+0	7.000788E-3	142.841061E-3	7.000788E-6
671	18.089000E+0	7.002915E+0	7.002915E-3	142.797682E-3	7.002915E-6
672	18.115000E+0	7.014437E+0	7.014437E-3	142.563114E-3	7.014437E-6
673	18.142000E+0	7.010198E+0	7.010198E-3	142.649319E-3	7.010198E-6
674	18.168000E+0	7.003065E+0	7.003065E-3	142.794625E-3	7.003065E-6
675	18.195000E+0	7.003349E+0	7.003349E-3	142.788824E-3	7.003349E-6
676	18.221000E+0	7.003130E+0	7.003130E-3	142.793286E-3	7.003130E-6
677	18.247000E+0	7.009206E+0	7.009206E-3	142.669515E-3	7.009206E-6
678	18.273000E+0	7.005088E+0	7.005088E-3	142.753390E-3	7.005088E-6
679	18.300000E+0	6.985226E+0	6.985226E-3	143.159287E-3	6.985226E-6
680	18.326000E+0	6.981993E+0	6.981993E-3	143.225579E-3	6.981993E-6
681	18.353000E+0	6.984395E+0	6.984395E-3	143.176315E-3	6.984395E-6
682	18.379000E+0	6.977847E+0	6.977847E-3	143.310683E-3	6.977847E-6
683	18.405000E+0	6.984013E+0	6.984013E-3	143.184162E-3	6.984013E-6
684	18.432000E+0	6.993524E+0	6.993524E-3	142.989433E-3	6.993524E-6
685	18.458000E+0	6.981889E+0	6.981889E-3	143.227718E-3	6.981889E-6
686	18.484000E+0	6.961560E+0	6.961560E-3	143.645957E-3	6.961560E-6
687	18.511000E+0	6.959505E+0	6.959505E-3	143.688382E-3	6.959505E-6
688	18.537000E+0	6.969064E+0	6.969064E-3	143.491283E-3	6.969064E-6
689	18.563000E+0	6.964437E+0	6.964437E-3	143.586620E-3	6.964437E-6
690	18.590000E+0	6.966058E+0	6.966058E-3	143.553218E-3	6.966058E-6
691	18.616000E+0	6.968837E+0	6.968837E-3	143.495962E-3	6.968837E-6
692	18.642000E+0	6.967104E+0	6.967104E-3	143.531659E-3	6.967104E-6
693	18.668000E+0	6.963166E+0	6.963166E-3	143.612835E-3	6.963166E-6
694	18.695000E+0	6.959137E+0	6.959137E-3	143.695978E-3	6.959137E-6
695	18.721000E+0	6.958774E+0	6.958774E-3	143.703478E-3	6.958774E-6
696	18.748000E+0	6.940656E+0	6.940656E-3	144.078593E-3	6.940656E-6
697	18.774000E+0	6.932427E+0	6.932427E-3	144.249632E-3	6.932427E-6
698	18.800000E+0	6.942806E+0	6.942806E-3	144.033977E-3	6.942806E-6
699	18.827000E+0	6.946373E+0	6.946373E-3	143.960025E-3	6.946373E-6
700	18.853000E+0	6.940567E+0	6.940567E-3	144.080439E-3	6.940567E-6
701	18.879000E+0	6.974976E+0	6.974976E-3	143.369668E-3	6.974976E-6
702	18.906000E+0	7.031342E+0	7.031342E-3	142.220361E-3	7.031342E-6
703	18.932000E+0	7.056165E+0	7.056165E-3	141.720032E-3	7.056165E-6
704	18.959000E+0	7.069264E+0	7.069264E-3	141.457449E-3	7.069264E-6
705	18.985000E+0	7.072305E+0	7.072305E-3	141.396620E-3	7.072305E-6
706	19.011000E+0	7.069010E+0	7.069010E-3	141.462519E-3	7.069010E-6
707	19.037000E+0	7.082680E+0	7.082680E-3	141.189498E-3	7.082680E-6
708	19.064000E+0	7.094674E+0	7.094674E-3	140.950798E-3	7.094674E-6
709	19.090000E+0	7.094061E+0	7.094061E-3	140.962983E-3	7.094061E-6
710	19.117000E+0	7.092876E+0	7.092876E-3	140.986526E-3	7.092876E-6
711	19.143000E+0	7.084365E+0	7.084365E-3	141.155921E-3	7.084365E-6
712	19.169000E+0	7.073868E+0	7.073868E-3	141.365373E-3	7.073868E-6
713	19.195000E+0	7.048461E+0	7.048461E-3	141.874950E-3	7.048461E-6
714	19.222000E+0	7.047421E+0	7.047421E-3	141.895883E-3	7.047421E-6
715	19.248000E+0	7.065568E+0	7.065568E-3	141.531445E-3	7.065568E-6
716	19.274000E+0	7.062703E+0	7.062703E-3	141.588852E-3	7.062703E-6
717	19.301000E+0	7.063304E+0	7.063304E-3	141.576811E-3	7.063304E-6
718	19.327000E+0	7.066813E+0	7.066813E-3	141.506507E-3	7.066813E-6
719	19.354000E+0	7.059277E+0	7.059277E-3	141.657556E-3	7.059277E-6
720	19.380000E+0	7.060086E+0	7.060086E-3	141.641327E-3	7.060086E-6
721	19.406000E+0	7.062622E+0	7.062622E-3	141.590467E-3	7.062622E-6
722	19.432000E+0	7.056867E+0	7.056867E-3	141.705949E-3	7.056867E-6
723	19.459000E+0	7.064235E+0	7.064235E-3	141.558146E-3	7.064235E-6
724	19.485000E+0	7.068006E+0	7.068006E-3	141.482613E-3	7.068006E-6
725	19.512000E+0	7.067370E+0	7.067370E-3	141.495356E-3	7.067370E-6
726	19.538000E+0	7.068977E+0	7.068977E-3	141.463190E-3	7.068977E-6
727	19.564000E+0	7.065500E+0	7.065500E-3	141.532798E-3	7.065500E-6
728	19.590000E+0	7.067703E+0	7.067703E-3	141.488681E-3	7.067703E-6
729	19.617000E+0	7.076348E+0	7.076348E-3	141.315837E-3	7.076348E-6
730	19.643000E+0	7.079630E+0	7.079630E-3	141.250316E-3	7.079630E-6
731	19.670000E+0	7.082590E+0	7.082590E-3	141.191289E-3	7.082590E-6
732	19.696000E+0	7.087731E+0	7.087731E-3	141.088880E-3	7.087731E-6
733	19.722000E+0	7.083697E+0	7.083697E-3	141.169227E-3	7.083697E-6
734	19.749000E+0	7.077190E+0	7.077190E-3	141.299026E-3	7.077190E-6
735	19.775000E+0	7.089641E+0	7.089641E-3	141.050857E-3	7.089641E-6
736	19.801000E+0	7.107330E+0	7.107330E-3	140.699822E-3	7.107330E-6
737	19.828000E+0	7.109081E+0	7.109081E-3	140.665150E-3	7.109081E-6
738	19.854000E+0	7.117013E+0	7.117013E-3	140.508385E-3	7.117013E-6
739	19.881000E+0	7.121577E+0	7.121577E-3	140.418338E-3	7.121577E-6
740	19.907000E+0	7.109686E+0	7.109686E-3	140.653192E-3	7.109686E-6
741	19.933000E+0	7.113843E+0	7.113843E-3	140.571001E-3	7.113843E-6
742	19.959000E+0	7.122290E+0	7.122290E-3	140.404274E-3	7.122290E-6
743	19.986000E+0	7.122733E+0	7.122733E-3	140.395544E-3	7.122733E-6
744	20.012000E+0	7.121875E+0	7.121875E-3	140.412463E-3	7.121875E-6
745	20.039000E+0	7.122504E+0	7.122504E-3	140.400070E-3	7.122504E-6
746	20.065000E+0	7.126568E+0	7.126568E-3	140.319999E-3	7.126568E-6
747	20.091000E+0	7.126229E+0	7.126229E-3	140.326674E-3	7.126229E-6
748	20.118000E+0	7.122635E+0	7.122635E-3	140.397481E-3	7.122635E-6
749	20.150000E+0	7.121913E+0	7.121913E-3	140.411710E-3	7.121913E-6
750	20.183000E+0	7.127281E+0	7.127281E-3	140.305963E-3	7.127281E-6
751	20.215000E+0	7.120052E+0	7.120052E-3	140.448415E-3	7.120052E-6
752	20.247000E+0	7.081180E+0	7.081180E-3	141.219404E-3	7.081180E-6
753	20.280000E+0	7.049378E+0	7.049378E-3	141.856487E-3	7.049378E-6
754	20.312000E+0	7.039460E+0	7.039460E-3	142.056353E-3	7.039460E-6
755	20.345000E+0	7.043557E+0	7.043557E-3	141.973726E-3	7.043557E-6
756	20.378000E+0	7.059324E+0	7.059324E-3	141.656631E-3	7.059324E-6
757	20.411000E+0	7.064497E+0	7.064497E-3	141.552893E-3	7.064497E-6
758	20.443000E+0	7.080155E+0	7.080155E-3	141.239847E-3	7.080155E-6
759	20.471000E+0	7.067785E+0	7.067785E-3	141.487040E-3	7.067785E-6
760	20.498000E+0	7.059914E+0	7.059914E-3	141.644784E-3	7.059914E-6
761	20.524000E+0	7.071193E+0	7.071193E-3	141.418846E-3	7.071193E-6
762	20.551000E+0	7.066668E+0	7.066668E-3	141.509416E-3	7.066668E-6
763	20.577000E+0	7.074588E+0	7.074588E-3	141.350988E-3	7.074588E-6
764	20.603000E+0	7.078275E+0	7.078275E-3	141.277367E-3	7.078275E-6
765	20.629000E+0	7.075090E+0	7.075090E-3	141.340950E-3	7.075090E-6
766	20.656000E+0	7.094820E+0	7.094820E-3	140.947893E-3	7.094820E-6
767	20.682000E+0	7.108773E+0	7.108773E-3	140.671259E-3	7.108773E-6
768	20.709000E+0	7.105949E+0	7.105949E-3	140.727150E-3	7.105949E-6
769	20.735000E+0	7.104845E+0	7.104845E-3	140.749019E-3	7.104845E-6
770	20.761000E+0	7.095966E+0	7.095966E-3	140.925148E-3	7.095966E-6
771	20.787000E+0	7.094946E+0	7.094946E-3	140.945395E-3	7.094946E-6
772	20.814000E+0	7.096963E+0	7.096963E-3	140.905333E-3	7.096963E-6
773	20.840000E+0	7.096340E+0	7.096340E-3	140.917714E-3	7.096340E-6
774	20.867000E+0	7.102438E+0	7.102438E-3	140.796728E-3	7.102438E-6
775	20.893000E+0	7.105020E+0	7.105020E-3	140.745551E-3	7.105020E-6
776	20.919000E+0	7.103982E+0	7.103982E-3	140.766124E-3	7.103982E-6
777	20.946000E+0	7.104026E+0	7.104026E-3	140.765257E-3	7.104026E-6
778	20.972000E+0	7.107986E+0	7.107986E-3	140.686834E-3	7.107986E-6
779	20.998000E+0	7.114876E+0	7.114876E-3	140.550595E-3	7.114876E-6
780	21.025000E+0	7.115291E+0	7.115291E-3	140.542390E-3	7.115291E-6
781	21.051000E+0	7.116168E+0	7.116168E-3	140.525064E-3	7.116168E-6
782	21.078000E+0	7.116666E+0	7.116666E-3	140.515244E-3	7.116666E-6
783	21.104000E+0	7.119552E+0	7.119552E-3	140.458281E-3	7.119552E-6
784	21.130000E+0	7.120312E+0	7.120312E-3	140.443289E-3	7.120312E-6
785	21.156000E+0	7.121085E+0	7.121085E-3	140.428035E-3	7.121085E-6
786	21.183000E+0	7.124305E+0	7.124305E-3	140.364573E-3	7.124305E-6
787	21.209000E+0	7.127169E+0	7.127169E-3	140.308163E-3	7.127169E-6
788	21.236000E+0	7.121094E+0	7.121094E-3	140.427870E-3	7.121094E-6
789	21.262000E+0	7.121722E+0	7.121722E-3	140.415483E-3	7.121722E-6
790	21.288000E+0	7.129826E+0	7.129826E-3	140.255884E-3	7.129826E-6
791	21.314000E+0	7.122348E+0	7.122348E-3	140.403136E-3	7.122348E-6
792	21.341000E+0	7.116127E+0	7.116127E-3	140.525873E-3	7.116127E-6
793	21.367000E+0	7.117335E+0	7.117335E-3	140.502023E-3	7.117335E-6
794	21.393000E+0	7.118003E+0	7.118003E-3	140.488852E-3	7.118003E-6
795	21.420000E+0	7.121246E+0	7.121246E-3	140.424858E-3	7.121246E-6
796	21.446000E+0	7.122692E+0	7.122692E-3	140.396352E-3	7.122692E-6
797	21.473000E+0	7.121897E+0	7.121897E-3	140.412031E-3	7.121897E-6
798	21.499000E+0	7.122670E+0	7.122670E-3	140.396783E-3	7.122670E-6
799	21.525000E+0	7.123020E+0	7.123020E-3	140.389891E-3	7.123020E-6
800	21.551000E+0	7.122383E+0	7.122383E-3	140.402438E-3	7.122383E-6
801	21.578000E+0	7.131397E+0	7.131397E-3	140.224984E-3	7.131397E-6
802	21.604000E+0	7.164519E+0	7.164519E-3	139.576715E-3	7.164519E-6
803	21.631000E+0	7.194908E+0	7.194908E-3	138.987186E-3	7.194908E-6
804	21.657000E+0	7.203028E+0	7.203028E-3	138.830510E-3	7.203028E-6
805	21.683000E+0	7.204170E+0	7.204170E-3	138.808498E-3	7.204170E-6
806	21.709000E+0	7.201943E+0	7.201943E-3	138.851426E-3	7.201943E-6
807	21.736000E+0	7.201964E+0	7.201964E-3	138.851004E-3	7.201965E-6
808	21.762000E+0	7.193035E+0	7.193035E-3	139.023366E-3	7.193035E-6
809	21.789000E+0	7.207635E+0	7.207635E-3	138.741759E-3	7.207635E-6
810	21.815000E+0	7.224889E+0	7.224889E-3	138.410431E-3	7.224889E-6
811	21.841000E+0	7.223288E+0	7.223288E-3	138.441116E-3	7.223288E-6
812	21.868000E+0	7.232044E+0	7.232044E-3	138.273488E-3	7.232044E-6
813	21.894000E+0	7.228984E+0	7.228984E-3	138.332034E-3	7.228984E-6
814	21.920000E+0	7.224545E+0	7.224545E-3	138.417024E-3	7.224545E-6
815	21.947000E+0	7.223080E+0	7.223080E-3	138.445097E-3	7.223080E-6
816	21.973000E+0	7.207862E+0	7.207862E-3	138.737393E-3	7.207862E-6
817	21.999000E+0	7.195801E+0	7.195801E-3	138.969926E-3	7.195801E-6
818	22.026000E+0	7.197299E+0	7.197299E-3	138.941010E-3	7.197299E-6
819	22.052000E+0	7.205113E+0	7.205113E-3	138.790332E-3	7.205113E-6
820	22.078000E+0	7.213752E+0	7.213752E-3	138.624112E-3	7.213752E-6
821	22.104000E+0	7.216297E+0	7.216297E-3	138.575235E-3	7.216297E-6
822	22.131000E+0	7.219831E+0	7.219831E-3	138.507406E-3	7.219831E-6
823	22.157000E+0	7.220812E+0	7.220812E-3	138.488586E-3	7.220812E-6
824	22.184000E+0	7.216338E+0	7.216338E-3	138.574448E-3	7.216338E-6
825	22.210000E+0	7.210030E+0	7.210030E-3	138.695683E-3	7.210030E-6
826	22.236000E+0	7.206182E+0	7.206182E-3	138.769749E-3	7.206182E-6
827	22.263000E+0	7.204719E+0	7.204719E-3	138.797912E-3	7.204719E-6
828	22.289000E+0	7.203295E+0	7.203295E-3	138.825350E-3	7.203295E-6
829	22.315000E+0	7.203503E+0	7.203503E-3	138.821347E-3	7.203503E-6
830	22.342000E+0	7.206452E+0	7.206452E-3	138.764539E-3	7.206452E-6
831	22.368000E+0	7.208767E+0	7.208767E-3	138.719980E-3	7.208767E-6
832	22.395000E+0	7.209281E+0	7.209281E-3	138.710088E-3	7.209281E-6
833	22.421000E+0	7.209027E+0	7.209027E-3	138.714980E-3	7.209027E-6
834	22.447000E+0	7.209174E+0	7.209174E-3	138.712140E-3	7.209174E-6
835	22.473000E+0	7.206728E+0	7.206728E-3	138.759222E-3	7.206728E-6
836	22.500000E+0	7.202374E+0	7.202374E-3	138.843104E-3	7.202374E-6
837	22.526000E+0	7.200899E+0	7.200899E-3	138.871557E-3	7.200899E-6
838	22.553000E+0	7.202287E+0	7.202287E-3	138.844791E-3	7.202287E-6
839	22.579000E+0	7.204949E+0	7.204949E-3	138.793489E-3	7.204949E-6
840	22.605000E+0	7.208729E+0	7.208729E-3	138.720715E-3	7.208729E-6
841	22.631000E+0	7.212817E+0	7.212817E-3	138.642083E-3	7.212817E-6
842	22.658000E+0	7.217644E+0	7.217644E-3	138.549370E-3	7.217644E-6
843	22.684000E+0	7.220877E+0	7.220877E-3	138.487327E-3	7.220877E-6
844	22.711000E+0	7.223793E+0	7.223793E-3	138.431425E-3	7.223793E-6
845	22.737000E+0	7.226469E+0	7.226469E-3	138.380169E-3	7.226469E-6
846	22.763000E+0	7.227969E+0	7.227969E-3	138.351444E-3	7.227969E-6
847	22.790000E+0	7.223173E+0	7.223173E-3	138.443312E-3	7.223173E-6
848	22.816000E+0	7.217343E+0	7.217343E-3	138.555136E-3	7.217343E-6
849	22.843000E+0	7.220153E+0	7.220153E-3	138.501225E-3	7.220153E-6
850	22.869000E+0	7.222539E+0	7.222539E-3	138.455469E-3	7.222539E-6
851	22.902000E+0	7.218953E+0	7.218953E-3	138.524239E-3	7.218953E-6
852	22.935000E+0	7.218557E+0	7.218557E-3	138.531843E-3	7.218557E-6
853	22.967000E+0	7.215452E+0	7.215452E-3	138.591458E-3	7.215452E-6
854	23.000000E+0	7.209232E+0	7.209232E-3	138.711038E-3	7.209232E-6
855	23.033000E+0	7.209650E+0	7.209650E-3	138.702993E-3	7.209650E-6
856	23.066000E+0	7.211943E+0	7.211943E-3	138.658894E-3	7.211943E-6
857	23.099000E+0	7.207654E+0	7.207654E-3	138.741391E-3	7.207654E-6
858	23.132000E+0	7.200431E+0	7.200431E-3	138.880574E-3	7.200431E-6
859	23.164000E+0	7.197849E+0	7.197849E-3	138.930404E-3	7.197849E-6
860	23.197000E+0	7.194132E+0	7.194132E-3	139.002183E-3	7.194132E-6
861	23.225000E+0	7.189034E+0	7.189034E-3	139.100738E-3	7.189034E-6
862	23.251000E+0	7.184421E+0	7.184421E-3	139.190067E-3	7.184421E-6
863	23.278000E+0	7.185063E+0	7.185063E-3	139.177618E-3	7.185063E-6
864	23.304000E+0	7.186957E+0	7.186957E-3	139.140943E-3	7.186957E-6
865	23.331000E+0	7.184180E+0	7.184180E-3	139.194722E-3	7.184180E-6
866	23.357000E+0	7.183071E+0	7.183071E-3	139.216226E-3	7.183071E-6
867	23.383000E+0	7.183213E+0	7.183213E-3	139.213473E-3	7.183213E-6
868	23.410000E+0	7.185192E+0	7.185192E-3	139.175129E-3	7.185192E-6
869	23.436000E+0	7.185629E+0	7.185629E-3	139.166660E-3	7.185629E-6
870	23.462000E+0	7.185224E+0	7.185224E-3	139.174497E-3	7.185224E-6
871	23.489000E+0	7.187414E+0	7.187414E-3	139.132109E-3	7.187414E-6
872	23.515000E+0	7.185574E+0	7.185574E-3	139.167724E-3	7.185574E-6
873	23.542000E+0	7.185624E+0	7.185624E-3	139.166768E-3	7.185624E-6
874	23.568000E+0	7.193943E+0	7.193943E-3	139.005827E-3	7.193943E-6
875	23.594000E+0	7.194459E+0	7.194459E-3	138.995849E-3	7.194459E-6
876	23.620000E+0	7.186227E+0	7.186227E-3	139.155072E-3	7.186227E-6
877	23.647000E+0	7.183771E+0	7.183771E-3	139.202662E-3	7.183771E-6
878	23.673000E+0	7.186175E+0	7.186175E-3	139.156082E-3	7.186175E-6
879	23.700000E+0	7.183355E+0	7.183355E-3	139.210721E-3	7.183355E-6
880	23.726000E+0	7.175992E+0	7.175992E-3	139.353551E-3	7.175992E-6
881	23.752000E+0	7.172961E+0	7.172961E-3	139.412436E-3	7.172961E-6
882	23.778000E+0	7.172289E+0	7.172289E-3	139.425506E-3	7.172289E-6
883	23.805000E+0	7.165738E+0	7.165738E-3	139.552969E-3	7.165738E-6
884	23.831000E+0	7.158053E+0	7.158053E-3	139.702801E-3	7.158053E-6
885	23.858000E+0	7.158364E+0	7.158364E-3	139.696721E-3	7.158364E-6
886	23.884000E+0	7.161048E+0	7.161048E-3	139.644369E-3	7.161048E-6
887	23.910000E+0	7.160903E+0	7.160903E-3	139.647194E-3	7.160903E-6
888	23.937000E+0	7.159394E+0	7.159394E-3	139.676622E-3	7.159394E-6
889	23.963000E+0	7.157946E+0	7.157946E-3	139.704882E-3	7.157946E-6
890	23.989000E+0	7.157618E+0	7.157618E-3	139.711289E-3	7.157618E-6
891	24.016000E+0	7.156082E+0	7.156082E-3	139.741273E-3	7.156082E-6
892	24.042000E+0	7.152742E+0	7.152742E-3	139.806520E-3	7.152742E-6
893	24.069000E+0	7.151969E+0	7.151969E-3	139.821639E-3	7.151969E-6
894	24.095000E+0	7.147945E+0	7.147945E-3	139.900340E-3	7.147945E-6
895	24.121000E+0	7.143305E+0	7.143305E-3	139.991229E-3	7.143305E-6
896	24.147000E+0	7.141487E+0	7.141487E-3	140.026856E-3	7.141487E-6
897	24.174000E+0	7.143843E+0	7.143843E-3	139.980671E-3	7.143843E-6
898	24.200000E+0	7.145518E+0	7.145518E-3	139.947858E-3	7.145518E-6
899	24.227000E+0	7.142370E+0	7.142370E-3	140.009547E-3	7.142370E-6
900	24.253000E+0	7.138989E+0	7.138989E-3	140.075849E-3	7.138989E-6
901	24.279000E+0	7.140785E+0	7.140785E-3	140.040626E-3	7.140785E-6
902	24.305000E+0	7.139550E+0	7.139550E-3	140.064858E-3	7.139550E-6
903	24.332000E+0	7.140654E+0	7.140654E-3	140.043201E-3	7.140654E-6
904	24.358000E+0	7.146708E+0	7.146708E-3	139.924569E-3	7.146708E-6
905	24.384000E+0	7.145133E+0	7.145133E-3	139.955401E-3	7.145133E-6
906	24.411000E+0	7.141982E+0	7.141982E-3	140.017151E-3	7.141982E-6
907	24.437000E+0	7.147503E+0	7.147503E-3	139.909008E-3	7.147503E-6
908	24.464000E+0	7.154721E+0	7.154721E-3	139.767857E-3	7.154721E-6
909	24.490000E+0	7.160425E+0	7.160425E-3	139.656520E-3	7.160425E-6
910	24.516000E+0	7.160679E+0	7.160679E-3	139.651562E-3	7.160679E-6
911	24.542000E+0	7.162994E+0	7.162994E-3	139.606432E-3	7.162994E-6
912	24.569000E+0	7.171382E+0	7.171382E-3	139.443142E-3	7.171382E-6
913	24.595000E+0	7.175773E+0	7.175773E-3	139.357801E-3	7.175773E-6
914	24.622000E+0	7.179526E+0	7.179526E-3	139.284958E-3	7.179526E-6
915	24.648000E+0	7.185279E+0	7.185279E-3	139.173442E-3	7.185279E-6
916	24.674000E+0	7.186894E+0	7.186894E-3	139.142160E-3	7.186894E-6
917	24.700000E+0	7.182565E+0	7.182565E-3	139.226028E-3	7.182565E-6
918	24.727000E+0	7.177943E+0	7.177943E-3	139.315672E-3	7.177943E-6
919	24.753000E+0	7.179237E+0	7.179237E-3	139.290578E-3	7.179237E-6
920	24.780000E+0	7.182376E+0	7.182376E-3	139.229683E-3	7.182376E-6
921	24.806000E+0	7.179449E+0	7.179449E-3	139.286449E-3	7.179449E-6
922	24.832000E+0	7.180291E+0	7.180291E-3	139.270117E-3	7.180291E-6
923	24.859000E+0	7.178386E+0	7.178386E-3	139.307077E-3	7.178386E-6
924	24.885000E+0	7.166514E+0	7.166514E-3	139.537853E-3	7.166514E-6
925	24.911000E+0	7.167940E+0	7.167940E-3	139.510087E-3	7.167940E-6
926	24.938000E+0	7.180488E+0	7.180488E-3	139.266297E-3	7.180488E-6
927	24.964000E+0	7.183527E+0	7.183527E-3	139.207382E-3	7.183527E-6
928	24.991000E+0	7.180313E+0	7.180313E-3	139.269693E-3	7.180313E-6
929	25.017000E+0	7.179857E+0	7.179857E-3	139.278544E-3	7.179857E-6
930	25.043000E+0	7.182262E+0	7.182262E-3	139.231904E-3	7.182262E-6
931	25.069000E+0	7.179420E+0	7.179420E-3	139.287027E-3	7.179420E-6
932	25.095000E+0	7.176025E+0	7.176025E-3	139.352918E-3	7.176025E-6
933	25.122000E+0	7.181122E+0	7.181122E-3	139.254006E-3	7.181122E-6
934	25.148000E+0	7.184454E+0	7.184454E-3	139.189427E-3	7.184454E-6
935	25.175000E+0	7.182866E+0	7.182866E-3	139.220197E-3	7.182866E-6
936	25.201000E+0	7.188515E+0	7.188515E-3	139.110794E-3	7.188515E-6
937	25.227000E+0	7.191822E+0	7.191822E-3	139.046824E-3	7.191822E-6
938	25.254000E+0	7.190294E+0	7.190294E-3	139.076370E-3	7.190294E-6
939	25.280000E+0	7.192434E+0	7.192434E-3	139.034986E-3	7.192434E-6
940	25.306000E+0	7.189371E+0	7.189371E-3	139.094233E-3	7.189371E-6
941	25.333000E+0	7.185514E+0	7.185514E-3	139.168887E-3	7.185514E-6
942	25.359000E+0	7.183686E+0	7.183686E-3	139.204305E-3	7.183686E-6
943	25.386000E+0	7.181603E+0	7.181603E-3	139.244678E-3	7.181603E-6
944	25.412000E+0	7.182494E+0	7.182494E-3	139.227400E-3	7.182494E-6
945	25.438000E+0	7.183224E+0	7.183224E-3	139.213257E-3	7.183224E-6
946	25.465000E+0	7.182511E+0	7.182511E-3	139.227084E-3	7.182511E-6
947	25.491000E+0	7.183661E+0	7.183661E-3	139.204783E-3	7.183661E-6
948	25.518000E+0	7.189015E+0	7.189015E-3	139.101107E-3	7.189015E-6
949	25.544000E+0	7.191956E+0	7.191956E-3	139.044231E-3	7.191956E-6
950	25.570000E+0	7.189750E+0	7.189750E-3	139.086890E-3	7.189750E-6
951	25.597000E+0	7.187156E+0	7.187156E-3	139.137085E-3	7.187156E-6
952	25.623000E+0	7.187389E+0	7.187389E-3	139.132587E-3	7.187389E-6
953	25.656000E+0	7.186151E+0	7.186151E-3	139.156551E-3	7.186151E-6
954	25.689000E+0	7.181130E+0	7.181130E-3	139.253843E-3	7.181130E-6
955	25.721000E+0	7.180261E+0	7.180261E-3	139.270695E-3	7.180261E-6
956	25.754000E+0	7.181753E+0	7.181753E-3	139.241762E-3	7.181753E-6
957	25.787000E+0	7.179215E+0	7.179215E-3	139.291002E-3	7.179215E-6
958	25.820000E+0	7.177055E+0	7.177055E-3	139.332909E-3	7.177055E-6
959	25.853000E+0	7.172226E+0	7.172226E-3	139.426728E-3	7.172226E-6
960	25.885000E+0	7.171062E+0	7.171062E-3	139.449363E-3	7.171062E-6
961	25.919000E+0	7.171751E+0	7.171751E-3	139.435971E-3	7.171751E-6
962	25.951000E+0	7.167785E+0	7.167785E-3	139.513114E-3	7.167785E-6
963	25.979000E+0	7.163978E+0	7.163978E-3	139.587257E-3	7.163978E-6
964	26.006000E+0	7.161414E+0	7.161414E-3	139.637223E-3	7.161414E-6
965	26.032000E+0	7.157041E+0	7.157041E-3	139.722543E-3	7.157041E-6
966	26.059000E+0	7.154691E+0	7.154691E-3	139.768448E-3	7.154691E-6
967	26.085000E+0	7.158793E+0	7.158793E-3	139.688352E-3	7.158793E-6
968	26.111000E+0	7.161660E+0	7.161660E-3	139.632429E-3	7.161660E-6
969	26.137000E+0	7.159796E+0	7.159796E-3	139.668782E-3	7.159796E-6
970	26.164000E+0	7.156437E+0	7.156437E-3	139.734335E-3	7.156437E-6
971	26.190000E+0	7.155511E+0	7.155511E-3	139.752431E-3	7.155511E-6
972	26.217000E+0	7.154267E+0	7.154267E-3	139.776718E-3	7.154267E-6
973	26.243000E+0	7.155292E+0	7.155292E-3	139.756696E-3	7.155292E-6
974	26.269000E+0	7.158121E+0	7.158121E-3	139.701474E-3	7.158121E-6
975	26.295000E+0	7.157705E+0	7.157705E-3	139.709581E-3	7.157705E-6
976	26.322000E+0	7.155888E+0	7.155888E-3	139.745065E-3	7.155888E-6
977	26.348000E+0	7.157260E+0	7.157260E-3	139.718279E-3	7.157260E-6
978	26.375000E+0	7.160526E+0	7.160526E-3	139.654549E-3	7.160526E-6
979	26.401000E+0	7.162540E+0	7.162540E-3	139.615272E-3	7.162540E-6
980	26.427000E+0	7.162983E+0	7.162983E-3	139.606640E-3	7.162983E-6
981	26.454000E+0	7.165013E+0	7.165013E-3	139.567081E-3	7.165013E-6
982	26.480000E+0	7.169477E+0	7.169477E-3	139.480194E-3	7.169477E-6
983	26.506000E+0	7.170420E+0	7.170420E-3	139.461851E-3	7.170420E-6
984	26.533000E+0	7.171278E+0	7.171278E-3	139.445161E-3	7.171278E-6
985	26.559000E+0	7.169564E+0	7.169564E-3	139.478491E-3	7.169564E-6
986	26.585000E+0	7.160794E+0	7.160794E-3	139.649328E-3	7.160794E-6
987	26.612000E+0	7.157241E+0	7.157241E-3	139.718652E-3	7.157241E-6
988	26.638000E+0	7.159280E+0	7.159280E-3	139.678857E-3	7.159280E-6
989	26.664000E+0	7.157976E+0	7.157976E-3	139.704300E-3	7.157976E-6
990	26.690000E+0	7.157473E+0	7.157473E-3	139.714116E-3	7.157473E-6
991	26.717000E+0	7.158050E+0	7.158050E-3	139.702855E-3	7.158050E-6
992	26.743000E+0	7.158902E+0	7.158902E-3	139.686216E-3	7.158902E-6
993	26.770000E+0	7.157180E+0	7.157180E-3	139.719825E-3	7.157180E-6
994	26.796000E+0	7.155912E+0	7.155912E-3	139.744583E-3	7.155912E-6
995	26.822000E+0	7.156189E+0	7.156189E-3	139.739190E-3	7.156189E-6
996	26.849000E+0	7.155934E+0	7.155934E-3	139.744155E-3	7.155934E-6
997	26.875000E+0	7.155598E+0	7.155598E-3	139.750721E-3	7.155598E-6
998	26.901000E+0	7.153786E+0	7.153786E-3	139.786117E-3	7.153786E-6
999	26.928000E+0	7.152266E+0	7.152266E-3	139.815823E-3	7.152266E-6
